#  E (eV)   dos(E)     Int dos(E) EFermi =    3.220 eV
 -10.000  0.8183E+00  0.8183E-02
  -9.990  0.8307E+00  0.1649E-01
  -9.980  0.8438E+00  0.2493E-01
  -9.970  0.8577E+00  0.3350E-01
  -9.960  0.8725E+00  0.4223E-01
  -9.950  0.8881E+00  0.5111E-01
  -9.940  0.9046E+00  0.6016E-01
  -9.930  0.9220E+00  0.6938E-01
  -9.920  0.9402E+00  0.7878E-01
  -9.910  0.9591E+00  0.8837E-01
  -9.900  0.9788E+00  0.9816E-01
  -9.890  0.9991E+00  0.1081E+00
  -9.880  0.1020E+01  0.1183E+00
  -9.870  0.1041E+01  0.1288E+00
  -9.860  0.1063E+01  0.1394E+00
  -9.850  0.1084E+01  0.1502E+00
  -9.840  0.1106E+01  0.1613E+00
  -9.830  0.1128E+01  0.1726E+00
  -9.820  0.1150E+01  0.1841E+00
  -9.810  0.1171E+01  0.1958E+00
  -9.800  0.1191E+01  0.2077E+00
  -9.790  0.1211E+01  0.2198E+00
  -9.780  0.1230E+01  0.2321E+00
  -9.770  0.1249E+01  0.2446E+00
  -9.760  0.1266E+01  0.2573E+00
  -9.750  0.1282E+01  0.2701E+00
  -9.740  0.1297E+01  0.2830E+00
  -9.730  0.1311E+01  0.2962E+00
  -9.720  0.1324E+01  0.3094E+00
  -9.710  0.1335E+01  0.3227E+00
  -9.700  0.1345E+01  0.3362E+00
  -9.690  0.1353E+01  0.3497E+00
  -9.680  0.1361E+01  0.3633E+00
  -9.670  0.1367E+01  0.3770E+00
  -9.660  0.1371E+01  0.3907E+00
  -9.650  0.1375E+01  0.4045E+00
  -9.640  0.1378E+01  0.4182E+00
  -9.630  0.1380E+01  0.4320E+00
  -9.620  0.1380E+01  0.4458E+00
  -9.610  0.1380E+01  0.4596E+00
  -9.600  0.1380E+01  0.4734E+00
  -9.590  0.1379E+01  0.4872E+00
  -9.580  0.1377E+01  0.5010E+00
  -9.570  0.1375E+01  0.5147E+00
  -9.560  0.1373E+01  0.5285E+00
  -9.550  0.1371E+01  0.5422E+00
  -9.540  0.1368E+01  0.5559E+00
  -9.530  0.1366E+01  0.5695E+00
  -9.520  0.1363E+01  0.5832E+00
  -9.510  0.1361E+01  0.5968E+00
  -9.500  0.1360E+01  0.6104E+00
  -9.490  0.1358E+01  0.6239E+00
  -9.480  0.1357E+01  0.6375E+00
  -9.470  0.1356E+01  0.6511E+00
  -9.460  0.1356E+01  0.6646E+00
  -9.450  0.1356E+01  0.6782E+00
  -9.440  0.1356E+01  0.6917E+00
  -9.430  0.1357E+01  0.7053E+00
  -9.420  0.1358E+01  0.7189E+00
  -9.410  0.1360E+01  0.7325E+00
  -9.400  0.1362E+01  0.7461E+00
  -9.390  0.1365E+01  0.7598E+00
  -9.380  0.1368E+01  0.7734E+00
  -9.370  0.1371E+01  0.7871E+00
  -9.360  0.1375E+01  0.8009E+00
  -9.350  0.1380E+01  0.8147E+00
  -9.340  0.1385E+01  0.8285E+00
  -9.330  0.1390E+01  0.8424E+00
  -9.320  0.1395E+01  0.8564E+00
  -9.310  0.1401E+01  0.8704E+00
  -9.300  0.1408E+01  0.8845E+00
  -9.290  0.1415E+01  0.8986E+00
  -9.280  0.1422E+01  0.9129E+00
  -9.270  0.1430E+01  0.9271E+00
  -9.260  0.1438E+01  0.9415E+00
  -9.250  0.1446E+01  0.9560E+00
  -9.240  0.1455E+01  0.9705E+00
  -9.230  0.1464E+01  0.9852E+00
  -9.220  0.1474E+01  0.9999E+00
  -9.210  0.1484E+01  0.1015E+01
  -9.200  0.1495E+01  0.1030E+01
  -9.190  0.1506E+01  0.1045E+01
  -9.180  0.1517E+01  0.1060E+01
  -9.170  0.1528E+01  0.1075E+01
  -9.160  0.1540E+01  0.1091E+01
  -9.150  0.1552E+01  0.1106E+01
  -9.140  0.1564E+01  0.1122E+01
  -9.130  0.1576E+01  0.1138E+01
  -9.120  0.1588E+01  0.1153E+01
  -9.110  0.1600E+01  0.1169E+01
  -9.100  0.1612E+01  0.1186E+01
  -9.090  0.1623E+01  0.1202E+01
  -9.080  0.1635E+01  0.1218E+01
  -9.070  0.1646E+01  0.1235E+01
  -9.060  0.1656E+01  0.1251E+01
  -9.050  0.1667E+01  0.1268E+01
  -9.040  0.1676E+01  0.1285E+01
  -9.030  0.1685E+01  0.1301E+01
  -9.020  0.1693E+01  0.1318E+01
  -9.010  0.1701E+01  0.1335E+01
  -9.000  0.1707E+01  0.1352E+01
  -8.990  0.1713E+01  0.1370E+01
  -8.980  0.1718E+01  0.1387E+01
  -8.970  0.1722E+01  0.1404E+01
  -8.960  0.1725E+01  0.1421E+01
  -8.950  0.1727E+01  0.1438E+01
  -8.940  0.1728E+01  0.1456E+01
  -8.930  0.1728E+01  0.1473E+01
  -8.920  0.1727E+01  0.1490E+01
  -8.910  0.1726E+01  0.1508E+01
  -8.900  0.1723E+01  0.1525E+01
  -8.890  0.1719E+01  0.1542E+01
  -8.880  0.1714E+01  0.1559E+01
  -8.870  0.1709E+01  0.1576E+01
  -8.860  0.1703E+01  0.1593E+01
  -8.850  0.1696E+01  0.1610E+01
  -8.840  0.1688E+01  0.1627E+01
  -8.830  0.1680E+01  0.1644E+01
  -8.820  0.1670E+01  0.1661E+01
  -8.810  0.1661E+01  0.1677E+01
  -8.800  0.1651E+01  0.1694E+01
  -8.790  0.1640E+01  0.1710E+01
  -8.780  0.1630E+01  0.1726E+01
  -8.770  0.1618E+01  0.1743E+01
  -8.760  0.1607E+01  0.1759E+01
  -8.750  0.1596E+01  0.1775E+01
  -8.740  0.1584E+01  0.1790E+01
  -8.730  0.1572E+01  0.1806E+01
  -8.720  0.1561E+01  0.1822E+01
  -8.710  0.1549E+01  0.1837E+01
  -8.700  0.1537E+01  0.1853E+01
  -8.690  0.1526E+01  0.1868E+01
  -8.680  0.1515E+01  0.1883E+01
  -8.670  0.1504E+01  0.1898E+01
  -8.660  0.1494E+01  0.1913E+01
  -8.650  0.1483E+01  0.1928E+01
  -8.640  0.1473E+01  0.1943E+01
  -8.630  0.1464E+01  0.1957E+01
  -8.620  0.1454E+01  0.1972E+01
  -8.610  0.1446E+01  0.1986E+01
  -8.600  0.1437E+01  0.2001E+01
  -8.590  0.1429E+01  0.2015E+01
  -8.580  0.1421E+01  0.2029E+01
  -8.570  0.1414E+01  0.2043E+01
  -8.560  0.1407E+01  0.2057E+01
  -8.550  0.1400E+01  0.2071E+01
  -8.540  0.1394E+01  0.2085E+01
  -8.530  0.1388E+01  0.2099E+01
  -8.520  0.1383E+01  0.2113E+01
  -8.510  0.1377E+01  0.2127E+01
  -8.500  0.1372E+01  0.2140E+01
  -8.490  0.1367E+01  0.2154E+01
  -8.480  0.1363E+01  0.2168E+01
  -8.470  0.1358E+01  0.2181E+01
  -8.460  0.1354E+01  0.2195E+01
  -8.450  0.1350E+01  0.2208E+01
  -8.440  0.1346E+01  0.2222E+01
  -8.430  0.1342E+01  0.2235E+01
  -8.420  0.1338E+01  0.2249E+01
  -8.410  0.1335E+01  0.2262E+01
  -8.400  0.1331E+01  0.2275E+01
  -8.390  0.1328E+01  0.2289E+01
  -8.380  0.1325E+01  0.2302E+01
  -8.370  0.1322E+01  0.2315E+01
  -8.360  0.1319E+01  0.2328E+01
  -8.350  0.1316E+01  0.2341E+01
  -8.340  0.1313E+01  0.2355E+01
  -8.330  0.1310E+01  0.2368E+01
  -8.320  0.1307E+01  0.2381E+01
  -8.310  0.1304E+01  0.2394E+01
  -8.300  0.1301E+01  0.2407E+01
  -8.290  0.1299E+01  0.2420E+01
  -8.280  0.1296E+01  0.2433E+01
  -8.270  0.1293E+01  0.2446E+01
  -8.260  0.1291E+01  0.2459E+01
  -8.250  0.1288E+01  0.2471E+01
  -8.240  0.1286E+01  0.2484E+01
  -8.230  0.1283E+01  0.2497E+01
  -8.220  0.1280E+01  0.2510E+01
  -8.210  0.1277E+01  0.2523E+01
  -8.200  0.1275E+01  0.2535E+01
  -8.190  0.1272E+01  0.2548E+01
  -8.180  0.1269E+01  0.2561E+01
  -8.170  0.1266E+01  0.2574E+01
  -8.160  0.1263E+01  0.2586E+01
  -8.150  0.1260E+01  0.2599E+01
  -8.140  0.1257E+01  0.2611E+01
  -8.130  0.1254E+01  0.2624E+01
  -8.120  0.1251E+01  0.2636E+01
  -8.110  0.1248E+01  0.2649E+01
  -8.100  0.1245E+01  0.2661E+01
  -8.090  0.1242E+01  0.2674E+01
  -8.080  0.1239E+01  0.2686E+01
  -8.070  0.1236E+01  0.2698E+01
  -8.060  0.1233E+01  0.2711E+01
  -8.050  0.1231E+01  0.2723E+01
  -8.040  0.1228E+01  0.2735E+01
  -8.030  0.1225E+01  0.2748E+01
  -8.020  0.1222E+01  0.2760E+01
  -8.010  0.1220E+01  0.2772E+01
  -8.000  0.1217E+01  0.2784E+01
  -7.990  0.1215E+01  0.2796E+01
  -7.980  0.1212E+01  0.2809E+01
  -7.970  0.1210E+01  0.2821E+01
  -7.960  0.1208E+01  0.2833E+01
  -7.950  0.1205E+01  0.2845E+01
  -7.940  0.1203E+01  0.2857E+01
  -7.930  0.1201E+01  0.2869E+01
  -7.920  0.1199E+01  0.2881E+01
  -7.910  0.1197E+01  0.2893E+01
  -7.900  0.1194E+01  0.2905E+01
  -7.890  0.1192E+01  0.2917E+01
  -7.880  0.1190E+01  0.2929E+01
  -7.870  0.1188E+01  0.2940E+01
  -7.860  0.1185E+01  0.2952E+01
  -7.850  0.1183E+01  0.2964E+01
  -7.840  0.1181E+01  0.2976E+01
  -7.830  0.1178E+01  0.2988E+01
  -7.820  0.1176E+01  0.2999E+01
  -7.810  0.1173E+01  0.3011E+01
  -7.800  0.1171E+01  0.3023E+01
  -7.790  0.1168E+01  0.3035E+01
  -7.780  0.1166E+01  0.3046E+01
  -7.770  0.1163E+01  0.3058E+01
  -7.760  0.1161E+01  0.3069E+01
  -7.750  0.1159E+01  0.3081E+01
  -7.740  0.1156E+01  0.3093E+01
  -7.730  0.1154E+01  0.3104E+01
  -7.720  0.1152E+01  0.3116E+01
  -7.710  0.1150E+01  0.3127E+01
  -7.700  0.1149E+01  0.3139E+01
  -7.690  0.1147E+01  0.3150E+01
  -7.680  0.1145E+01  0.3162E+01
  -7.670  0.1144E+01  0.3173E+01
  -7.660  0.1143E+01  0.3184E+01
  -7.650  0.1142E+01  0.3196E+01
  -7.640  0.1141E+01  0.3207E+01
  -7.630  0.1141E+01  0.3219E+01
  -7.620  0.1140E+01  0.3230E+01
  -7.610  0.1140E+01  0.3241E+01
  -7.600  0.1140E+01  0.3253E+01
  -7.590  0.1140E+01  0.3264E+01
  -7.580  0.1140E+01  0.3276E+01
  -7.570  0.1141E+01  0.3287E+01
  -7.560  0.1141E+01  0.3298E+01
  -7.550  0.1142E+01  0.3310E+01
  -7.540  0.1143E+01  0.3321E+01
  -7.530  0.1145E+01  0.3333E+01
  -7.520  0.1146E+01  0.3344E+01
  -7.510  0.1148E+01  0.3356E+01
  -7.500  0.1150E+01  0.3367E+01
  -7.490  0.1152E+01  0.3379E+01
  -7.480  0.1155E+01  0.3390E+01
  -7.470  0.1158E+01  0.3402E+01
  -7.460  0.1161E+01  0.3414E+01
  -7.450  0.1165E+01  0.3425E+01
  -7.440  0.1169E+01  0.3437E+01
  -7.430  0.1173E+01  0.3449E+01
  -7.420  0.1178E+01  0.3460E+01
  -7.410  0.1183E+01  0.3472E+01
  -7.400  0.1189E+01  0.3484E+01
  -7.390  0.1195E+01  0.3496E+01
  -7.380  0.1202E+01  0.3508E+01
  -7.370  0.1209E+01  0.3520E+01
  -7.360  0.1216E+01  0.3532E+01
  -7.350  0.1223E+01  0.3545E+01
  -7.340  0.1231E+01  0.3557E+01
  -7.330  0.1240E+01  0.3569E+01
  -7.320  0.1248E+01  0.3582E+01
  -7.310  0.1257E+01  0.3594E+01
  -7.300  0.1266E+01  0.3607E+01
  -7.290  0.1275E+01  0.3620E+01
  -7.280  0.1285E+01  0.3633E+01
  -7.270  0.1294E+01  0.3646E+01
  -7.260  0.1303E+01  0.3659E+01
  -7.250  0.1313E+01  0.3672E+01
  -7.240  0.1322E+01  0.3685E+01
  -7.230  0.1331E+01  0.3698E+01
  -7.220  0.1340E+01  0.3712E+01
  -7.210  0.1348E+01  0.3725E+01
  -7.200  0.1357E+01  0.3739E+01
  -7.190  0.1365E+01  0.3752E+01
  -7.180  0.1372E+01  0.3766E+01
  -7.170  0.1380E+01  0.3780E+01
  -7.160  0.1387E+01  0.3794E+01
  -7.150  0.1393E+01  0.3808E+01
  -7.140  0.1399E+01  0.3822E+01
  -7.130  0.1405E+01  0.3836E+01
  -7.120  0.1410E+01  0.3850E+01
  -7.110  0.1415E+01  0.3864E+01
  -7.100  0.1420E+01  0.3878E+01
  -7.090  0.1424E+01  0.3892E+01
  -7.080  0.1428E+01  0.3907E+01
  -7.070  0.1431E+01  0.3921E+01
  -7.060  0.1434E+01  0.3935E+01
  -7.050  0.1437E+01  0.3950E+01
  -7.040  0.1439E+01  0.3964E+01
  -7.030  0.1442E+01  0.3978E+01
  -7.020  0.1444E+01  0.3993E+01
  -7.010  0.1446E+01  0.4007E+01
  -7.000  0.1447E+01  0.4022E+01
  -6.990  0.1449E+01  0.4036E+01
  -6.980  0.1450E+01  0.4051E+01
  -6.970  0.1452E+01  0.4065E+01
  -6.960  0.1453E+01  0.4080E+01
  -6.950  0.1455E+01  0.4094E+01
  -6.940  0.1456E+01  0.4109E+01
  -6.930  0.1457E+01  0.4124E+01
  -6.920  0.1458E+01  0.4138E+01
  -6.910  0.1459E+01  0.4153E+01
  -6.900  0.1460E+01  0.4167E+01
  -6.890  0.1462E+01  0.4182E+01
  -6.880  0.1463E+01  0.4197E+01
  -6.870  0.1464E+01  0.4211E+01
  -6.860  0.1464E+01  0.4226E+01
  -6.850  0.1465E+01  0.4241E+01
  -6.840  0.1466E+01  0.4255E+01
  -6.830  0.1466E+01  0.4270E+01
  -6.820  0.1467E+01  0.4284E+01
  -6.810  0.1467E+01  0.4299E+01
  -6.800  0.1467E+01  0.4314E+01
  -6.790  0.1467E+01  0.4329E+01
  -6.780  0.1466E+01  0.4343E+01
  -6.770  0.1466E+01  0.4358E+01
  -6.760  0.1465E+01  0.4372E+01
  -6.750  0.1464E+01  0.4387E+01
  -6.740  0.1463E+01  0.4402E+01
  -6.730  0.1462E+01  0.4416E+01
  -6.720  0.1460E+01  0.4431E+01
  -6.710  0.1459E+01  0.4446E+01
  -6.700  0.1457E+01  0.4460E+01
  -6.690  0.1455E+01  0.4475E+01
  -6.680  0.1453E+01  0.4489E+01
  -6.670  0.1451E+01  0.4504E+01
  -6.660  0.1450E+01  0.4518E+01
  -6.650  0.1448E+01  0.4533E+01
  -6.640  0.1446E+01  0.4547E+01
  -6.630  0.1445E+01  0.4562E+01
  -6.620  0.1444E+01  0.4576E+01
  -6.610  0.1443E+01  0.4590E+01
  -6.600  0.1443E+01  0.4605E+01
  -6.590  0.1443E+01  0.4619E+01
  -6.580  0.1443E+01  0.4634E+01
  -6.570  0.1444E+01  0.4648E+01
  -6.560  0.1445E+01  0.4663E+01
  -6.550  0.1446E+01  0.4677E+01
  -6.540  0.1448E+01  0.4692E+01
  -6.530  0.1451E+01  0.4706E+01
  -6.520  0.1454E+01  0.4721E+01
  -6.510  0.1457E+01  0.4735E+01
  -6.500  0.1460E+01  0.4750E+01
  -6.490  0.1464E+01  0.4764E+01
  -6.480  0.1469E+01  0.4779E+01
  -6.470  0.1473E+01  0.4794E+01
  -6.460  0.1477E+01  0.4809E+01
  -6.450  0.1482E+01  0.4823E+01
  -6.440  0.1487E+01  0.4838E+01
  -6.430  0.1491E+01  0.4853E+01
  -6.420  0.1495E+01  0.4868E+01
  -6.410  0.1499E+01  0.4883E+01
  -6.400  0.1503E+01  0.4898E+01
  -6.390  0.1506E+01  0.4913E+01
  -6.380  0.1509E+01  0.4928E+01
  -6.370  0.1511E+01  0.4943E+01
  -6.360  0.1513E+01  0.4959E+01
  -6.350  0.1514E+01  0.4974E+01
  -6.340  0.1514E+01  0.4989E+01
  -6.330  0.1514E+01  0.5004E+01
  -6.320  0.1513E+01  0.5019E+01
  -6.310  0.1512E+01  0.5034E+01
  -6.300  0.1510E+01  0.5049E+01
  -6.290  0.1507E+01  0.5064E+01
  -6.280  0.1504E+01  0.5079E+01
  -6.270  0.1501E+01  0.5094E+01
  -6.260  0.1497E+01  0.5109E+01
  -6.250  0.1493E+01  0.5124E+01
  -6.240  0.1488E+01  0.5139E+01
  -6.230  0.1484E+01  0.5154E+01
  -6.220  0.1480E+01  0.5169E+01
  -6.210  0.1476E+01  0.5184E+01
  -6.200  0.1472E+01  0.5198E+01
  -6.190  0.1469E+01  0.5213E+01
  -6.180  0.1466E+01  0.5228E+01
  -6.170  0.1464E+01  0.5242E+01
  -6.160  0.1462E+01  0.5257E+01
  -6.150  0.1461E+01  0.5272E+01
  -6.140  0.1461E+01  0.5286E+01
  -6.130  0.1462E+01  0.5301E+01
  -6.120  0.1463E+01  0.5315E+01
  -6.110  0.1466E+01  0.5330E+01
  -6.100  0.1469E+01  0.5345E+01
  -6.090  0.1473E+01  0.5360E+01
  -6.080  0.1478E+01  0.5374E+01
  -6.070  0.1483E+01  0.5389E+01
  -6.060  0.1489E+01  0.5404E+01
  -6.050  0.1496E+01  0.5419E+01
  -6.040  0.1503E+01  0.5434E+01
  -6.030  0.1510E+01  0.5449E+01
  -6.020  0.1518E+01  0.5464E+01
  -6.010  0.1525E+01  0.5480E+01
  -6.000  0.1532E+01  0.5495E+01
  -5.990  0.1539E+01  0.5510E+01
  -5.980  0.1546E+01  0.5526E+01
  -5.970  0.1552E+01  0.5541E+01
  -5.960  0.1558E+01  0.5557E+01
  -5.950  0.1563E+01  0.5572E+01
  -5.940  0.1567E+01  0.5588E+01
  -5.930  0.1570E+01  0.5604E+01
  -5.920  0.1573E+01  0.5620E+01
  -5.910  0.1575E+01  0.5635E+01
  -5.900  0.1575E+01  0.5651E+01
  -5.890  0.1575E+01  0.5667E+01
  -5.880  0.1574E+01  0.5683E+01
  -5.870  0.1572E+01  0.5698E+01
  -5.860  0.1569E+01  0.5714E+01
  -5.850  0.1566E+01  0.5730E+01
  -5.840  0.1562E+01  0.5745E+01
  -5.830  0.1558E+01  0.5761E+01
  -5.820  0.1553E+01  0.5776E+01
  -5.810  0.1548E+01  0.5792E+01
  -5.800  0.1543E+01  0.5807E+01
  -5.790  0.1538E+01  0.5823E+01
  -5.780  0.1533E+01  0.5838E+01
  -5.770  0.1528E+01  0.5853E+01
  -5.760  0.1524E+01  0.5868E+01
  -5.750  0.1520E+01  0.5884E+01
  -5.740  0.1517E+01  0.5899E+01
  -5.730  0.1514E+01  0.5914E+01
  -5.720  0.1512E+01  0.5929E+01
  -5.710  0.1511E+01  0.5944E+01
  -5.700  0.1510E+01  0.5959E+01
  -5.690  0.1511E+01  0.5974E+01
  -5.680  0.1512E+01  0.5990E+01
  -5.670  0.1514E+01  0.6005E+01
  -5.660  0.1516E+01  0.6020E+01
  -5.650  0.1520E+01  0.6035E+01
  -5.640  0.1524E+01  0.6050E+01
  -5.630  0.1529E+01  0.6066E+01
  -5.620  0.1534E+01  0.6081E+01
  -5.610  0.1539E+01  0.6096E+01
  -5.600  0.1545E+01  0.6112E+01
  -5.590  0.1552E+01  0.6127E+01
  -5.580  0.1558E+01  0.6143E+01
  -5.570  0.1565E+01  0.6158E+01
  -5.560  0.1571E+01  0.6174E+01
  -5.550  0.1578E+01  0.6190E+01
  -5.540  0.1584E+01  0.6206E+01
  -5.530  0.1590E+01  0.6222E+01
  -5.520  0.1596E+01  0.6238E+01
  -5.510  0.1602E+01  0.6254E+01
  -5.500  0.1607E+01  0.6270E+01
  -5.490  0.1611E+01  0.6286E+01
  -5.480  0.1616E+01  0.6302E+01
  -5.470  0.1619E+01  0.6318E+01
  -5.460  0.1622E+01  0.6334E+01
  -5.450  0.1625E+01  0.6351E+01
  -5.440  0.1627E+01  0.6367E+01
  -5.430  0.1628E+01  0.6383E+01
  -5.420  0.1629E+01  0.6400E+01
  -5.410  0.1629E+01  0.6416E+01
  -5.400  0.1629E+01  0.6432E+01
  -5.390  0.1628E+01  0.6448E+01
  -5.380  0.1627E+01  0.6465E+01
  -5.370  0.1625E+01  0.6481E+01
  -5.360  0.1623E+01  0.6497E+01
  -5.350  0.1621E+01  0.6513E+01
  -5.340  0.1618E+01  0.6530E+01
  -5.330  0.1615E+01  0.6546E+01
  -5.320  0.1612E+01  0.6562E+01
  -5.310  0.1609E+01  0.6578E+01
  -5.300  0.1606E+01  0.6594E+01
  -5.290  0.1603E+01  0.6610E+01
  -5.280  0.1600E+01  0.6626E+01
  -5.270  0.1598E+01  0.6642E+01
  -5.260  0.1595E+01  0.6658E+01
  -5.250  0.1594E+01  0.6674E+01
  -5.240  0.1592E+01  0.6690E+01
  -5.230  0.1591E+01  0.6706E+01
  -5.220  0.1591E+01  0.6722E+01
  -5.210  0.1591E+01  0.6738E+01
  -5.200  0.1591E+01  0.6753E+01
  -5.190  0.1593E+01  0.6769E+01
  -5.180  0.1595E+01  0.6785E+01
  -5.170  0.1597E+01  0.6801E+01
  -5.160  0.1601E+01  0.6817E+01
  -5.150  0.1604E+01  0.6833E+01
  -5.140  0.1609E+01  0.6849E+01
  -5.130  0.1614E+01  0.6866E+01
  -5.120  0.1619E+01  0.6882E+01
  -5.110  0.1625E+01  0.6898E+01
  -5.100  0.1632E+01  0.6914E+01
  -5.090  0.1638E+01  0.6931E+01
  -5.080  0.1645E+01  0.6947E+01
  -5.070  0.1652E+01  0.6964E+01
  -5.060  0.1658E+01  0.6980E+01
  -5.050  0.1665E+01  0.6997E+01
  -5.040  0.1671E+01  0.7014E+01
  -5.030  0.1678E+01  0.7030E+01
  -5.020  0.1683E+01  0.7047E+01
  -5.010  0.1689E+01  0.7064E+01
  -5.000  0.1694E+01  0.7081E+01
  -4.990  0.1698E+01  0.7098E+01
  -4.980  0.1702E+01  0.7115E+01
  -4.970  0.1705E+01  0.7132E+01
  -4.960  0.1707E+01  0.7149E+01
  -4.950  0.1709E+01  0.7166E+01
  -4.940  0.1711E+01  0.7183E+01
  -4.930  0.1711E+01  0.7200E+01
  -4.920  0.1711E+01  0.7218E+01
  -4.910  0.1711E+01  0.7235E+01
  -4.900  0.1710E+01  0.7252E+01
  -4.890  0.1709E+01  0.7269E+01
  -4.880  0.1708E+01  0.7286E+01
  -4.870  0.1706E+01  0.7303E+01
  -4.860  0.1704E+01  0.7320E+01
  -4.850  0.1703E+01  0.7337E+01
  -4.840  0.1701E+01  0.7354E+01
  -4.830  0.1700E+01  0.7371E+01
  -4.820  0.1699E+01  0.7388E+01
  -4.810  0.1698E+01  0.7405E+01
  -4.800  0.1698E+01  0.7422E+01
  -4.790  0.1698E+01  0.7439E+01
  -4.780  0.1699E+01  0.7456E+01
  -4.770  0.1701E+01  0.7473E+01
  -4.760  0.1703E+01  0.7490E+01
  -4.750  0.1706E+01  0.7507E+01
  -4.740  0.1709E+01  0.7524E+01
  -4.730  0.1714E+01  0.7541E+01
  -4.720  0.1719E+01  0.7559E+01
  -4.710  0.1725E+01  0.7576E+01
  -4.700  0.1732E+01  0.7593E+01
  -4.690  0.1740E+01  0.7611E+01
  -4.680  0.1748E+01  0.7628E+01
  -4.670  0.1757E+01  0.7646E+01
  -4.660  0.1767E+01  0.7663E+01
  -4.650  0.1777E+01  0.7681E+01
  -4.640  0.1789E+01  0.7699E+01
  -4.630  0.1800E+01  0.7717E+01
  -4.620  0.1813E+01  0.7735E+01
  -4.610  0.1826E+01  0.7753E+01
  -4.600  0.1839E+01  0.7772E+01
  -4.590  0.1854E+01  0.7790E+01
  -4.580  0.1868E+01  0.7809E+01
  -4.570  0.1884E+01  0.7828E+01
  -4.560  0.1900E+01  0.7847E+01
  -4.550  0.1916E+01  0.7866E+01
  -4.540  0.1933E+01  0.7885E+01
  -4.530  0.1950E+01  0.7905E+01
  -4.520  0.1968E+01  0.7924E+01
  -4.510  0.1987E+01  0.7944E+01
  -4.500  0.2006E+01  0.7964E+01
  -4.490  0.2026E+01  0.7985E+01
  -4.480  0.2046E+01  0.8005E+01
  -4.470  0.2068E+01  0.8026E+01
  -4.460  0.2089E+01  0.8047E+01
  -4.450  0.2111E+01  0.8068E+01
  -4.440  0.2134E+01  0.8089E+01
  -4.430  0.2158E+01  0.8111E+01
  -4.420  0.2182E+01  0.8133E+01
  -4.410  0.2207E+01  0.8155E+01
  -4.400  0.2232E+01  0.8177E+01
  -4.390  0.2258E+01  0.8199E+01
  -4.380  0.2284E+01  0.8222E+01
  -4.370  0.2311E+01  0.8245E+01
  -4.360  0.2339E+01  0.8269E+01
  -4.350  0.2367E+01  0.8292E+01
  -4.340  0.2395E+01  0.8316E+01
  -4.330  0.2424E+01  0.8341E+01
  -4.320  0.2453E+01  0.8365E+01
  -4.310  0.2482E+01  0.8390E+01
  -4.300  0.2512E+01  0.8415E+01
  -4.290  0.2541E+01  0.8441E+01
  -4.280  0.2571E+01  0.8466E+01
  -4.270  0.2601E+01  0.8492E+01
  -4.260  0.2630E+01  0.8519E+01
  -4.250  0.2659E+01  0.8545E+01
  -4.240  0.2688E+01  0.8572E+01
  -4.230  0.2716E+01  0.8599E+01
  -4.220  0.2744E+01  0.8627E+01
  -4.210  0.2771E+01  0.8654E+01
  -4.200  0.2798E+01  0.8682E+01
  -4.190  0.2824E+01  0.8711E+01
  -4.180  0.2848E+01  0.8739E+01
  -4.170  0.2872E+01  0.8768E+01
  -4.160  0.2895E+01  0.8797E+01
  -4.150  0.2916E+01  0.8826E+01
  -4.140  0.2937E+01  0.8855E+01
  -4.130  0.2956E+01  0.8885E+01
  -4.120  0.2973E+01  0.8915E+01
  -4.110  0.2990E+01  0.8944E+01
  -4.100  0.3005E+01  0.8974E+01
  -4.090  0.3018E+01  0.9005E+01
  -4.080  0.3031E+01  0.9035E+01
  -4.070  0.3042E+01  0.9065E+01
  -4.060  0.3051E+01  0.9096E+01
  -4.050  0.3060E+01  0.9127E+01
  -4.040  0.3067E+01  0.9157E+01
  -4.030  0.3074E+01  0.9188E+01
  -4.020  0.3079E+01  0.9219E+01
  -4.010  0.3083E+01  0.9250E+01
  -4.000  0.3087E+01  0.9280E+01
  -3.990  0.3090E+01  0.9311E+01
  -3.980  0.3093E+01  0.9342E+01
  -3.970  0.3095E+01  0.9373E+01
  -3.960  0.3097E+01  0.9404E+01
  -3.950  0.3099E+01  0.9435E+01
  -3.940  0.3100E+01  0.9466E+01
  -3.930  0.3102E+01  0.9497E+01
  -3.920  0.3105E+01  0.9528E+01
  -3.910  0.3107E+01  0.9559E+01
  -3.900  0.3110E+01  0.9590E+01
  -3.890  0.3113E+01  0.9622E+01
  -3.880  0.3117E+01  0.9653E+01
  -3.870  0.3121E+01  0.9684E+01
  -3.860  0.3126E+01  0.9715E+01
  -3.850  0.3131E+01  0.9746E+01
  -3.840  0.3137E+01  0.9778E+01
  -3.830  0.3143E+01  0.9809E+01
  -3.820  0.3150E+01  0.9841E+01
  -3.810  0.3157E+01  0.9872E+01
  -3.800  0.3165E+01  0.9904E+01
  -3.790  0.3173E+01  0.9936E+01
  -3.780  0.3181E+01  0.9968E+01
  -3.770  0.3189E+01  0.9999E+01
  -3.760  0.3198E+01  0.1003E+02
  -3.750  0.3206E+01  0.1006E+02
  -3.740  0.3214E+01  0.1010E+02
  -3.730  0.3223E+01  0.1013E+02
  -3.720  0.3231E+01  0.1016E+02
  -3.710  0.3239E+01  0.1019E+02
  -3.700  0.3246E+01  0.1022E+02
  -3.690  0.3254E+01  0.1026E+02
  -3.680  0.3261E+01  0.1029E+02
  -3.670  0.3268E+01  0.1032E+02
  -3.660  0.3275E+01  0.1036E+02
  -3.650  0.3282E+01  0.1039E+02
  -3.640  0.3289E+01  0.1042E+02
  -3.630  0.3296E+01  0.1045E+02
  -3.620  0.3303E+01  0.1049E+02
  -3.610  0.3311E+01  0.1052E+02
  -3.600  0.3318E+01  0.1055E+02
  -3.590  0.3326E+01  0.1059E+02
  -3.580  0.3335E+01  0.1062E+02
  -3.570  0.3344E+01  0.1065E+02
  -3.560  0.3354E+01  0.1069E+02
  -3.550  0.3365E+01  0.1072E+02
  -3.540  0.3376E+01  0.1075E+02
  -3.530  0.3389E+01  0.1079E+02
  -3.520  0.3402E+01  0.1082E+02
  -3.510  0.3416E+01  0.1086E+02
  -3.500  0.3432E+01  0.1089E+02
  -3.490  0.3448E+01  0.1093E+02
  -3.480  0.3466E+01  0.1096E+02
  -3.470  0.3485E+01  0.1099E+02
  -3.460  0.3505E+01  0.1103E+02
  -3.450  0.3525E+01  0.1107E+02
  -3.440  0.3547E+01  0.1110E+02
  -3.430  0.3569E+01  0.1114E+02
  -3.420  0.3593E+01  0.1117E+02
  -3.410  0.3617E+01  0.1121E+02
  -3.400  0.3641E+01  0.1124E+02
  -3.390  0.3666E+01  0.1128E+02
  -3.380  0.3692E+01  0.1132E+02
  -3.370  0.3718E+01  0.1136E+02
  -3.360  0.3744E+01  0.1139E+02
  -3.350  0.3770E+01  0.1143E+02
  -3.340  0.3797E+01  0.1147E+02
  -3.330  0.3823E+01  0.1151E+02
  -3.320  0.3849E+01  0.1155E+02
  -3.310  0.3875E+01  0.1158E+02
  -3.300  0.3901E+01  0.1162E+02
  -3.290  0.3926E+01  0.1166E+02
  -3.280  0.3951E+01  0.1170E+02
  -3.270  0.3975E+01  0.1174E+02
  -3.260  0.3999E+01  0.1178E+02
  -3.250  0.4022E+01  0.1182E+02
  -3.240  0.4044E+01  0.1186E+02
  -3.230  0.4065E+01  0.1190E+02
  -3.220  0.4086E+01  0.1194E+02
  -3.210  0.4106E+01  0.1199E+02
  -3.200  0.4125E+01  0.1203E+02
  -3.190  0.4143E+01  0.1207E+02
  -3.180  0.4159E+01  0.1211E+02
  -3.170  0.4175E+01  0.1215E+02
  -3.160  0.4189E+01  0.1219E+02
  -3.150  0.4203E+01  0.1223E+02
  -3.140  0.4214E+01  0.1228E+02
  -3.130  0.4225E+01  0.1232E+02
  -3.120  0.4234E+01  0.1236E+02
  -3.110  0.4241E+01  0.1240E+02
  -3.100  0.4247E+01  0.1245E+02
  -3.090  0.4251E+01  0.1249E+02
  -3.080  0.4253E+01  0.1253E+02
  -3.070  0.4254E+01  0.1257E+02
  -3.060  0.4253E+01  0.1262E+02
  -3.050  0.4250E+01  0.1266E+02
  -3.040  0.4245E+01  0.1270E+02
  -3.030  0.4238E+01  0.1274E+02
  -3.020  0.4229E+01  0.1279E+02
  -3.010  0.4218E+01  0.1283E+02
  -3.000  0.4204E+01  0.1287E+02
  -2.990  0.4189E+01  0.1291E+02
  -2.980  0.4172E+01  0.1295E+02
  -2.970  0.4153E+01  0.1300E+02
  -2.960  0.4133E+01  0.1304E+02
  -2.950  0.4110E+01  0.1308E+02
  -2.940  0.4085E+01  0.1312E+02
  -2.930  0.4059E+01  0.1316E+02
  -2.920  0.4032E+01  0.1320E+02
  -2.910  0.4002E+01  0.1324E+02
  -2.900  0.3972E+01  0.1328E+02
  -2.890  0.3940E+01  0.1332E+02
  -2.880  0.3907E+01  0.1336E+02
  -2.870  0.3873E+01  0.1340E+02
  -2.860  0.3838E+01  0.1344E+02
  -2.850  0.3802E+01  0.1347E+02
  -2.840  0.3766E+01  0.1351E+02
  -2.830  0.3730E+01  0.1355E+02
  -2.820  0.3693E+01  0.1359E+02
  -2.810  0.3656E+01  0.1362E+02
  -2.800  0.3619E+01  0.1366E+02
  -2.790  0.3582E+01  0.1369E+02
  -2.780  0.3546E+01  0.1373E+02
  -2.770  0.3511E+01  0.1376E+02
  -2.760  0.3476E+01  0.1380E+02
  -2.750  0.3441E+01  0.1383E+02
  -2.740  0.3408E+01  0.1387E+02
  -2.730  0.3376E+01  0.1390E+02
  -2.720  0.3344E+01  0.1393E+02
  -2.710  0.3315E+01  0.1397E+02
  -2.700  0.3286E+01  0.1400E+02
  -2.690  0.3259E+01  0.1403E+02
  -2.680  0.3233E+01  0.1407E+02
  -2.670  0.3208E+01  0.1410E+02
  -2.660  0.3186E+01  0.1413E+02
  -2.650  0.3164E+01  0.1416E+02
  -2.640  0.3145E+01  0.1419E+02
  -2.630  0.3126E+01  0.1422E+02
  -2.620  0.3110E+01  0.1425E+02
  -2.610  0.3094E+01  0.1429E+02
  -2.600  0.3081E+01  0.1432E+02
  -2.590  0.3068E+01  0.1435E+02
  -2.580  0.3057E+01  0.1438E+02
  -2.570  0.3047E+01  0.1441E+02
  -2.560  0.3038E+01  0.1444E+02
  -2.550  0.3029E+01  0.1447E+02
  -2.540  0.3022E+01  0.1450E+02
  -2.530  0.3016E+01  0.1453E+02
  -2.520  0.3010E+01  0.1456E+02
  -2.510  0.3004E+01  0.1459E+02
  -2.500  0.2999E+01  0.1462E+02
  -2.490  0.2994E+01  0.1465E+02
  -2.480  0.2990E+01  0.1468E+02
  -2.470  0.2985E+01  0.1471E+02
  -2.460  0.2980E+01  0.1474E+02
  -2.450  0.2975E+01  0.1477E+02
  -2.440  0.2970E+01  0.1480E+02
  -2.430  0.2964E+01  0.1483E+02
  -2.420  0.2958E+01  0.1486E+02
  -2.410  0.2951E+01  0.1489E+02
  -2.400  0.2945E+01  0.1492E+02
  -2.390  0.2937E+01  0.1495E+02
  -2.380  0.2929E+01  0.1498E+02
  -2.370  0.2921E+01  0.1500E+02
  -2.360  0.2912E+01  0.1503E+02
  -2.350  0.2903E+01  0.1506E+02
  -2.340  0.2894E+01  0.1509E+02
  -2.330  0.2884E+01  0.1512E+02
  -2.320  0.2874E+01  0.1515E+02
  -2.310  0.2864E+01  0.1518E+02
  -2.300  0.2854E+01  0.1521E+02
  -2.290  0.2844E+01  0.1523E+02
  -2.280  0.2835E+01  0.1526E+02
  -2.270  0.2825E+01  0.1529E+02
  -2.260  0.2816E+01  0.1532E+02
  -2.250  0.2807E+01  0.1535E+02
  -2.240  0.2798E+01  0.1538E+02
  -2.230  0.2790E+01  0.1540E+02
  -2.220  0.2782E+01  0.1543E+02
  -2.210  0.2775E+01  0.1546E+02
  -2.200  0.2768E+01  0.1549E+02
  -2.190  0.2762E+01  0.1551E+02
  -2.180  0.2756E+01  0.1554E+02
  -2.170  0.2751E+01  0.1557E+02
  -2.160  0.2747E+01  0.1560E+02
  -2.150  0.2743E+01  0.1562E+02
  -2.140  0.2739E+01  0.1565E+02
  -2.130  0.2735E+01  0.1568E+02
  -2.120  0.2732E+01  0.1571E+02
  -2.110  0.2729E+01  0.1573E+02
  -2.100  0.2726E+01  0.1576E+02
  -2.090  0.2724E+01  0.1579E+02
  -2.080  0.2721E+01  0.1582E+02
  -2.070  0.2718E+01  0.1584E+02
  -2.060  0.2715E+01  0.1587E+02
  -2.050  0.2712E+01  0.1590E+02
  -2.040  0.2709E+01  0.1592E+02
  -2.030  0.2706E+01  0.1595E+02
  -2.020  0.2702E+01  0.1598E+02
  -2.010  0.2699E+01  0.1601E+02
  -2.000  0.2695E+01  0.1603E+02
  -1.990  0.2690E+01  0.1606E+02
  -1.980  0.2686E+01  0.1609E+02
  -1.970  0.2681E+01  0.1611E+02
  -1.960  0.2675E+01  0.1614E+02
  -1.950  0.2670E+01  0.1617E+02
  -1.940  0.2664E+01  0.1619E+02
  -1.930  0.2658E+01  0.1622E+02
  -1.920  0.2652E+01  0.1625E+02
  -1.910  0.2646E+01  0.1627E+02
  -1.900  0.2640E+01  0.1630E+02
  -1.890  0.2634E+01  0.1633E+02
  -1.880  0.2628E+01  0.1635E+02
  -1.870  0.2622E+01  0.1638E+02
  -1.860  0.2615E+01  0.1640E+02
  -1.850  0.2609E+01  0.1643E+02
  -1.840  0.2603E+01  0.1646E+02
  -1.830  0.2598E+01  0.1648E+02
  -1.820  0.2592E+01  0.1651E+02
  -1.810  0.2586E+01  0.1653E+02
  -1.800  0.2581E+01  0.1656E+02
  -1.790  0.2576E+01  0.1659E+02
  -1.780  0.2571E+01  0.1661E+02
  -1.770  0.2566E+01  0.1664E+02
  -1.760  0.2561E+01  0.1666E+02
  -1.750  0.2557E+01  0.1669E+02
  -1.740  0.2553E+01  0.1671E+02
  -1.730  0.2548E+01  0.1674E+02
  -1.720  0.2544E+01  0.1676E+02
  -1.710  0.2540E+01  0.1679E+02
  -1.700  0.2537E+01  0.1681E+02
  -1.690  0.2533E+01  0.1684E+02
  -1.680  0.2529E+01  0.1687E+02
  -1.670  0.2526E+01  0.1689E+02
  -1.660  0.2522E+01  0.1692E+02
  -1.650  0.2519E+01  0.1694E+02
  -1.640  0.2515E+01  0.1697E+02
  -1.630  0.2512E+01  0.1699E+02
  -1.620  0.2509E+01  0.1702E+02
  -1.610  0.2506E+01  0.1704E+02
  -1.600  0.2503E+01  0.1707E+02
  -1.590  0.2500E+01  0.1709E+02
  -1.580  0.2497E+01  0.1712E+02
  -1.570  0.2494E+01  0.1714E+02
  -1.560  0.2492E+01  0.1717E+02
  -1.550  0.2489E+01  0.1719E+02
  -1.540  0.2487E+01  0.1722E+02
  -1.530  0.2484E+01  0.1724E+02
  -1.520  0.2482E+01  0.1727E+02
  -1.510  0.2479E+01  0.1729E+02
  -1.500  0.2477E+01  0.1732E+02
  -1.490  0.2474E+01  0.1734E+02
  -1.480  0.2472E+01  0.1736E+02
  -1.470  0.2470E+01  0.1739E+02
  -1.460  0.2467E+01  0.1741E+02
  -1.450  0.2464E+01  0.1744E+02
  -1.440  0.2462E+01  0.1746E+02
  -1.430  0.2459E+01  0.1749E+02
  -1.420  0.2456E+01  0.1751E+02
  -1.410  0.2452E+01  0.1754E+02
  -1.400  0.2449E+01  0.1756E+02
  -1.390  0.2445E+01  0.1759E+02
  -1.380  0.2441E+01  0.1761E+02
  -1.370  0.2437E+01  0.1763E+02
  -1.360  0.2433E+01  0.1766E+02
  -1.350  0.2429E+01  0.1768E+02
  -1.340  0.2424E+01  0.1771E+02
  -1.330  0.2419E+01  0.1773E+02
  -1.320  0.2414E+01  0.1776E+02
  -1.310  0.2409E+01  0.1778E+02
  -1.300  0.2404E+01  0.1780E+02
  -1.290  0.2399E+01  0.1783E+02
  -1.280  0.2394E+01  0.1785E+02
  -1.270  0.2390E+01  0.1788E+02
  -1.260  0.2385E+01  0.1790E+02
  -1.250  0.2380E+01  0.1792E+02
  -1.240  0.2376E+01  0.1795E+02
  -1.230  0.2372E+01  0.1797E+02
  -1.220  0.2369E+01  0.1799E+02
  -1.210  0.2365E+01  0.1802E+02
  -1.200  0.2363E+01  0.1804E+02
  -1.190  0.2360E+01  0.1807E+02
  -1.180  0.2358E+01  0.1809E+02
  -1.170  0.2357E+01  0.1811E+02
  -1.160  0.2355E+01  0.1814E+02
  -1.150  0.2355E+01  0.1816E+02
  -1.140  0.2354E+01  0.1818E+02
  -1.130  0.2354E+01  0.1821E+02
  -1.120  0.2354E+01  0.1823E+02
  -1.110  0.2354E+01  0.1825E+02
  -1.100  0.2354E+01  0.1828E+02
  -1.090  0.2355E+01  0.1830E+02
  -1.080  0.2355E+01  0.1832E+02
  -1.070  0.2355E+01  0.1835E+02
  -1.060  0.2355E+01  0.1837E+02
  -1.050  0.2355E+01  0.1840E+02
  -1.040  0.2355E+01  0.1842E+02
  -1.030  0.2354E+01  0.1844E+02
  -1.020  0.2353E+01  0.1847E+02
  -1.010  0.2351E+01  0.1849E+02
  -1.000  0.2349E+01  0.1851E+02
  -0.990  0.2347E+01  0.1854E+02
  -0.980  0.2344E+01  0.1856E+02
  -0.970  0.2340E+01  0.1858E+02
  -0.960  0.2336E+01  0.1861E+02
  -0.950  0.2332E+01  0.1863E+02
  -0.940  0.2327E+01  0.1865E+02
  -0.930  0.2322E+01  0.1868E+02
  -0.920  0.2317E+01  0.1870E+02
  -0.910  0.2312E+01  0.1872E+02
  -0.900  0.2307E+01  0.1875E+02
  -0.890  0.2301E+01  0.1877E+02
  -0.880  0.2296E+01  0.1879E+02
  -0.870  0.2291E+01  0.1881E+02
  -0.860  0.2286E+01  0.1884E+02
  -0.850  0.2282E+01  0.1886E+02
  -0.840  0.2278E+01  0.1888E+02
  -0.830  0.2274E+01  0.1891E+02
  -0.820  0.2271E+01  0.1893E+02
  -0.810  0.2269E+01  0.1895E+02
  -0.800  0.2266E+01  0.1897E+02
  -0.790  0.2265E+01  0.1900E+02
  -0.780  0.2264E+01  0.1902E+02
  -0.770  0.2263E+01  0.1904E+02
  -0.760  0.2263E+01  0.1906E+02
  -0.750  0.2263E+01  0.1909E+02
  -0.740  0.2264E+01  0.1911E+02
  -0.730  0.2265E+01  0.1913E+02
  -0.720  0.2266E+01  0.1916E+02
  -0.710  0.2267E+01  0.1918E+02
  -0.700  0.2269E+01  0.1920E+02
  -0.690  0.2270E+01  0.1922E+02
  -0.680  0.2272E+01  0.1925E+02
  -0.670  0.2273E+01  0.1927E+02
  -0.660  0.2274E+01  0.1929E+02
  -0.650  0.2275E+01  0.1931E+02
  -0.640  0.2276E+01  0.1934E+02
  -0.630  0.2276E+01  0.1936E+02
  -0.620  0.2276E+01  0.1938E+02
  -0.610  0.2275E+01  0.1941E+02
  -0.600  0.2274E+01  0.1943E+02
  -0.590  0.2272E+01  0.1945E+02
  -0.580  0.2270E+01  0.1947E+02
  -0.570  0.2268E+01  0.1950E+02
  -0.560  0.2265E+01  0.1952E+02
  -0.550  0.2262E+01  0.1954E+02
  -0.540  0.2259E+01  0.1956E+02
  -0.530  0.2255E+01  0.1959E+02
  -0.520  0.2251E+01  0.1961E+02
  -0.510  0.2247E+01  0.1963E+02
  -0.500  0.2242E+01  0.1965E+02
  -0.490  0.2238E+01  0.1968E+02
  -0.480  0.2234E+01  0.1970E+02
  -0.470  0.2230E+01  0.1972E+02
  -0.460  0.2226E+01  0.1974E+02
  -0.450  0.2222E+01  0.1977E+02
  -0.440  0.2218E+01  0.1979E+02
  -0.430  0.2215E+01  0.1981E+02
  -0.420  0.2212E+01  0.1983E+02
  -0.410  0.2210E+01  0.1985E+02
  -0.400  0.2208E+01  0.1988E+02
  -0.390  0.2207E+01  0.1990E+02
  -0.380  0.2206E+01  0.1992E+02
  -0.370  0.2205E+01  0.1994E+02
  -0.360  0.2205E+01  0.1996E+02
  -0.350  0.2205E+01  0.1999E+02
  -0.340  0.2206E+01  0.2001E+02
  -0.330  0.2208E+01  0.2003E+02
  -0.320  0.2209E+01  0.2005E+02
  -0.310  0.2211E+01  0.2007E+02
  -0.300  0.2213E+01  0.2010E+02
  -0.290  0.2215E+01  0.2012E+02
  -0.280  0.2218E+01  0.2014E+02
  -0.270  0.2220E+01  0.2016E+02
  -0.260  0.2223E+01  0.2019E+02
  -0.250  0.2225E+01  0.2021E+02
  -0.240  0.2227E+01  0.2023E+02
  -0.230  0.2229E+01  0.2025E+02
  -0.220  0.2231E+01  0.2027E+02
  -0.210  0.2232E+01  0.2030E+02
  -0.200  0.2233E+01  0.2032E+02
  -0.190  0.2234E+01  0.2034E+02
  -0.180  0.2234E+01  0.2036E+02
  -0.170  0.2233E+01  0.2039E+02
  -0.160  0.2232E+01  0.2041E+02
  -0.150  0.2231E+01  0.2043E+02
  -0.140  0.2229E+01  0.2045E+02
  -0.130  0.2227E+01  0.2048E+02
  -0.120  0.2224E+01  0.2050E+02
  -0.110  0.2221E+01  0.2052E+02
  -0.100  0.2217E+01  0.2054E+02
  -0.090  0.2213E+01  0.2056E+02
  -0.080  0.2209E+01  0.2059E+02
  -0.070  0.2205E+01  0.2061E+02
  -0.060  0.2200E+01  0.2063E+02
  -0.050  0.2195E+01  0.2065E+02
  -0.040  0.2191E+01  0.2067E+02
  -0.030  0.2186E+01  0.2070E+02
  -0.020  0.2182E+01  0.2072E+02
  -0.010  0.2177E+01  0.2074E+02
   0.000  0.2173E+01  0.2076E+02
   0.010  0.2169E+01  0.2078E+02
   0.020  0.2165E+01  0.2080E+02
   0.030  0.2161E+01  0.2083E+02
   0.040  0.2158E+01  0.2085E+02
   0.050  0.2154E+01  0.2087E+02
   0.060  0.2151E+01  0.2089E+02
   0.070  0.2148E+01  0.2091E+02
   0.080  0.2145E+01  0.2093E+02
   0.090  0.2142E+01  0.2096E+02
   0.100  0.2139E+01  0.2098E+02
   0.110  0.2136E+01  0.2100E+02
   0.120  0.2133E+01  0.2102E+02
   0.130  0.2129E+01  0.2104E+02
   0.140  0.2125E+01  0.2106E+02
   0.150  0.2121E+01  0.2108E+02
   0.160  0.2116E+01  0.2110E+02
   0.170  0.2110E+01  0.2113E+02
   0.180  0.2103E+01  0.2115E+02
   0.190  0.2095E+01  0.2117E+02
   0.200  0.2086E+01  0.2119E+02
   0.210  0.2076E+01  0.2121E+02
   0.220  0.2065E+01  0.2123E+02
   0.230  0.2053E+01  0.2125E+02
   0.240  0.2040E+01  0.2127E+02
   0.250  0.2025E+01  0.2129E+02
   0.260  0.2009E+01  0.2131E+02
   0.270  0.1992E+01  0.2133E+02
   0.280  0.1974E+01  0.2135E+02
   0.290  0.1954E+01  0.2137E+02
   0.300  0.1934E+01  0.2139E+02
   0.310  0.1913E+01  0.2141E+02
   0.320  0.1891E+01  0.2143E+02
   0.330  0.1868E+01  0.2145E+02
   0.340  0.1845E+01  0.2146E+02
   0.350  0.1822E+01  0.2148E+02
   0.360  0.1799E+01  0.2150E+02
   0.370  0.1776E+01  0.2152E+02
   0.380  0.1753E+01  0.2154E+02
   0.390  0.1730E+01  0.2155E+02
   0.400  0.1708E+01  0.2157E+02
   0.410  0.1687E+01  0.2159E+02
   0.420  0.1667E+01  0.2160E+02
   0.430  0.1648E+01  0.2162E+02
   0.440  0.1631E+01  0.2164E+02
   0.450  0.1615E+01  0.2165E+02
   0.460  0.1600E+01  0.2167E+02
   0.470  0.1587E+01  0.2168E+02
   0.480  0.1576E+01  0.2170E+02
   0.490  0.1567E+01  0.2172E+02
   0.500  0.1560E+01  0.2173E+02
   0.510  0.1555E+01  0.2175E+02
   0.520  0.1551E+01  0.2176E+02
   0.530  0.1550E+01  0.2178E+02
   0.540  0.1550E+01  0.2179E+02
   0.550  0.1552E+01  0.2181E+02
   0.560  0.1556E+01  0.2183E+02
   0.570  0.1562E+01  0.2184E+02
   0.580  0.1569E+01  0.2186E+02
   0.590  0.1577E+01  0.2187E+02
   0.600  0.1586E+01  0.2189E+02
   0.610  0.1597E+01  0.2190E+02
   0.620  0.1608E+01  0.2192E+02
   0.630  0.1621E+01  0.2194E+02
   0.640  0.1634E+01  0.2195E+02
   0.650  0.1647E+01  0.2197E+02
   0.660  0.1661E+01  0.2199E+02
   0.670  0.1675E+01  0.2200E+02
   0.680  0.1690E+01  0.2202E+02
   0.690  0.1704E+01  0.2204E+02
   0.700  0.1719E+01  0.2205E+02
   0.710  0.1733E+01  0.2207E+02
   0.720  0.1748E+01  0.2209E+02
   0.730  0.1762E+01  0.2211E+02
   0.740  0.1776E+01  0.2212E+02
   0.750  0.1790E+01  0.2214E+02
   0.760  0.1803E+01  0.2216E+02
   0.770  0.1817E+01  0.2218E+02
   0.780  0.1830E+01  0.2220E+02
   0.790  0.1843E+01  0.2221E+02
   0.800  0.1855E+01  0.2223E+02
   0.810  0.1868E+01  0.2225E+02
   0.820  0.1880E+01  0.2227E+02
   0.830  0.1892E+01  0.2229E+02
   0.840  0.1905E+01  0.2231E+02
   0.850  0.1916E+01  0.2233E+02
   0.860  0.1928E+01  0.2235E+02
   0.870  0.1940E+01  0.2237E+02
   0.880  0.1951E+01  0.2239E+02
   0.890  0.1962E+01  0.2241E+02
   0.900  0.1972E+01  0.2243E+02
   0.910  0.1983E+01  0.2245E+02
   0.920  0.1992E+01  0.2247E+02
   0.930  0.2001E+01  0.2249E+02
   0.940  0.2009E+01  0.2251E+02
   0.950  0.2016E+01  0.2253E+02
   0.960  0.2022E+01  0.2255E+02
   0.970  0.2027E+01  0.2257E+02
   0.980  0.2031E+01  0.2259E+02
   0.990  0.2033E+01  0.2261E+02
   1.000  0.2033E+01  0.2263E+02
   1.010  0.2032E+01  0.2265E+02
   1.020  0.2029E+01  0.2267E+02
   1.030  0.2023E+01  0.2269E+02
   1.040  0.2016E+01  0.2271E+02
   1.050  0.2006E+01  0.2273E+02
   1.060  0.1994E+01  0.2275E+02
   1.070  0.1979E+01  0.2277E+02
   1.080  0.1962E+01  0.2279E+02
   1.090  0.1943E+01  0.2281E+02
   1.100  0.1922E+01  0.2283E+02
   1.110  0.1898E+01  0.2284E+02
   1.120  0.1873E+01  0.2286E+02
   1.130  0.1845E+01  0.2288E+02
   1.140  0.1815E+01  0.2290E+02
   1.150  0.1784E+01  0.2292E+02
   1.160  0.1752E+01  0.2294E+02
   1.170  0.1718E+01  0.2295E+02
   1.180  0.1684E+01  0.2297E+02
   1.190  0.1648E+01  0.2299E+02
   1.200  0.1612E+01  0.2300E+02
   1.210  0.1577E+01  0.2302E+02
   1.220  0.1541E+01  0.2303E+02
   1.230  0.1505E+01  0.2305E+02
   1.240  0.1470E+01  0.2306E+02
   1.250  0.1436E+01  0.2308E+02
   1.260  0.1403E+01  0.2309E+02
   1.270  0.1371E+01  0.2311E+02
   1.280  0.1341E+01  0.2312E+02
   1.290  0.1312E+01  0.2313E+02
   1.300  0.1285E+01  0.2314E+02
   1.310  0.1259E+01  0.2316E+02
   1.320  0.1236E+01  0.2317E+02
   1.330  0.1214E+01  0.2318E+02
   1.340  0.1194E+01  0.2319E+02
   1.350  0.1175E+01  0.2321E+02
   1.360  0.1159E+01  0.2322E+02
   1.370  0.1144E+01  0.2323E+02
   1.380  0.1130E+01  0.2324E+02
   1.390  0.1118E+01  0.2325E+02
   1.400  0.1107E+01  0.2326E+02
   1.410  0.1097E+01  0.2327E+02
   1.420  0.1087E+01  0.2328E+02
   1.430  0.1079E+01  0.2329E+02
   1.440  0.1070E+01  0.2331E+02
   1.450  0.1063E+01  0.2332E+02
   1.460  0.1055E+01  0.2333E+02
   1.470  0.1047E+01  0.2334E+02
   1.480  0.1039E+01  0.2335E+02
   1.490  0.1031E+01  0.2336E+02
   1.500  0.1023E+01  0.2337E+02
   1.510  0.1014E+01  0.2338E+02
   1.520  0.1004E+01  0.2339E+02
   1.530  0.9942E+00  0.2340E+02
   1.540  0.9835E+00  0.2341E+02
   1.550  0.9724E+00  0.2342E+02
   1.560  0.9606E+00  0.2343E+02
   1.570  0.9485E+00  0.2344E+02
   1.580  0.9359E+00  0.2345E+02
   1.590  0.9229E+00  0.2346E+02
   1.600  0.9098E+00  0.2346E+02
   1.610  0.8965E+00  0.2347E+02
   1.620  0.8832E+00  0.2348E+02
   1.630  0.8700E+00  0.2349E+02
   1.640  0.8571E+00  0.2350E+02
   1.650  0.8444E+00  0.2351E+02
   1.660  0.8322E+00  0.2352E+02
   1.670  0.8206E+00  0.2352E+02
   1.680  0.8095E+00  0.2353E+02
   1.690  0.7992E+00  0.2354E+02
   1.700  0.7896E+00  0.2355E+02
   1.710  0.7807E+00  0.2356E+02
   1.720  0.7728E+00  0.2356E+02
   1.730  0.7656E+00  0.2357E+02
   1.740  0.7593E+00  0.2358E+02
   1.750  0.7537E+00  0.2359E+02
   1.760  0.7489E+00  0.2359E+02
   1.770  0.7448E+00  0.2360E+02
   1.780  0.7413E+00  0.2361E+02
   1.790  0.7384E+00  0.2362E+02
   1.800  0.7359E+00  0.2362E+02
   1.810  0.7337E+00  0.2363E+02
   1.820  0.7318E+00  0.2364E+02
   1.830  0.7300E+00  0.2365E+02
   1.840  0.7282E+00  0.2365E+02
   1.850  0.7263E+00  0.2366E+02
   1.860  0.7243E+00  0.2367E+02
   1.870  0.7220E+00  0.2367E+02
   1.880  0.7193E+00  0.2368E+02
   1.890  0.7161E+00  0.2369E+02
   1.900  0.7125E+00  0.2370E+02
   1.910  0.7083E+00  0.2370E+02
   1.920  0.7036E+00  0.2371E+02
   1.930  0.6982E+00  0.2372E+02
   1.940  0.6922E+00  0.2372E+02
   1.950  0.6856E+00  0.2373E+02
   1.960  0.6784E+00  0.2374E+02
   1.970  0.6707E+00  0.2374E+02
   1.980  0.6625E+00  0.2375E+02
   1.990  0.6538E+00  0.2376E+02
   2.000  0.6448E+00  0.2376E+02
   2.010  0.6354E+00  0.2377E+02
   2.020  0.6259E+00  0.2378E+02
   2.030  0.6162E+00  0.2378E+02
   2.040  0.6065E+00  0.2379E+02
   2.050  0.5968E+00  0.2380E+02
   2.060  0.5872E+00  0.2380E+02
   2.070  0.5779E+00  0.2381E+02
   2.080  0.5688E+00  0.2381E+02
   2.090  0.5600E+00  0.2382E+02
   2.100  0.5517E+00  0.2382E+02
   2.110  0.5438E+00  0.2383E+02
   2.120  0.5364E+00  0.2383E+02
   2.130  0.5295E+00  0.2384E+02
   2.140  0.5232E+00  0.2384E+02
   2.150  0.5174E+00  0.2385E+02
   2.160  0.5122E+00  0.2386E+02
   2.170  0.5074E+00  0.2386E+02
   2.180  0.5032E+00  0.2387E+02
   2.190  0.4994E+00  0.2387E+02
   2.200  0.4960E+00  0.2388E+02
   2.210  0.4929E+00  0.2388E+02
   2.220  0.4901E+00  0.2388E+02
   2.230  0.4876E+00  0.2389E+02
   2.240  0.4852E+00  0.2389E+02
   2.250  0.4829E+00  0.2390E+02
   2.260  0.4807E+00  0.2390E+02
   2.270  0.4784E+00  0.2391E+02
   2.280  0.4759E+00  0.2391E+02
   2.290  0.4734E+00  0.2392E+02
   2.300  0.4706E+00  0.2392E+02
   2.310  0.4675E+00  0.2393E+02
   2.320  0.4641E+00  0.2393E+02
   2.330  0.4604E+00  0.2394E+02
   2.340  0.4563E+00  0.2394E+02
   2.350  0.4518E+00  0.2395E+02
   2.360  0.4470E+00  0.2395E+02
   2.370  0.4418E+00  0.2396E+02
   2.380  0.4362E+00  0.2396E+02
   2.390  0.4303E+00  0.2396E+02
   2.400  0.4241E+00  0.2397E+02
   2.410  0.4176E+00  0.2397E+02
   2.420  0.4109E+00  0.2398E+02
   2.430  0.4040E+00  0.2398E+02
   2.440  0.3969E+00  0.2398E+02
   2.450  0.3898E+00  0.2399E+02
   2.460  0.3826E+00  0.2399E+02
   2.470  0.3755E+00  0.2400E+02
   2.480  0.3684E+00  0.2400E+02
   2.490  0.3615E+00  0.2400E+02
   2.500  0.3547E+00  0.2401E+02
   2.510  0.3481E+00  0.2401E+02
   2.520  0.3417E+00  0.2401E+02
   2.530  0.3356E+00  0.2402E+02
   2.540  0.3298E+00  0.2402E+02
   2.550  0.3243E+00  0.2402E+02
   2.560  0.3191E+00  0.2403E+02
   2.570  0.3142E+00  0.2403E+02
   2.580  0.3096E+00  0.2403E+02
   2.590  0.3053E+00  0.2404E+02
   2.600  0.3012E+00  0.2404E+02
   2.610  0.2975E+00  0.2404E+02
   2.620  0.2939E+00  0.2404E+02
   2.630  0.2905E+00  0.2405E+02
   2.640  0.2873E+00  0.2405E+02
   2.650  0.2843E+00  0.2405E+02
   2.660  0.2812E+00  0.2406E+02
   2.670  0.2783E+00  0.2406E+02
   2.680  0.2753E+00  0.2406E+02
   2.690  0.2723E+00  0.2406E+02
   2.700  0.2693E+00  0.2407E+02
   2.710  0.2661E+00  0.2407E+02
   2.720  0.2629E+00  0.2407E+02
   2.730  0.2594E+00  0.2408E+02
   2.740  0.2559E+00  0.2408E+02
   2.750  0.2521E+00  0.2408E+02
   2.760  0.2481E+00  0.2408E+02
   2.770  0.2439E+00  0.2409E+02
   2.780  0.2396E+00  0.2409E+02
   2.790  0.2350E+00  0.2409E+02
   2.800  0.2302E+00  0.2409E+02
   2.810  0.2253E+00  0.2409E+02
   2.820  0.2202E+00  0.2410E+02
   2.830  0.2150E+00  0.2410E+02
   2.840  0.2097E+00  0.2410E+02
   2.850  0.2042E+00  0.2410E+02
   2.860  0.1987E+00  0.2411E+02
   2.870  0.1932E+00  0.2411E+02
   2.880  0.1876E+00  0.2411E+02
   2.890  0.1821E+00  0.2411E+02
   2.900  0.1766E+00  0.2411E+02
   2.910  0.1711E+00  0.2411E+02
   2.920  0.1658E+00  0.2412E+02
   2.930  0.1605E+00  0.2412E+02
   2.940  0.1554E+00  0.2412E+02
   2.950  0.1504E+00  0.2412E+02
   2.960  0.1455E+00  0.2412E+02
   2.970  0.1408E+00  0.2412E+02
   2.980  0.1363E+00  0.2412E+02
   2.990  0.1320E+00  0.2413E+02
   3.000  0.1278E+00  0.2413E+02
   3.010  0.1237E+00  0.2413E+02
   3.020  0.1198E+00  0.2413E+02
   3.030  0.1161E+00  0.2413E+02
   3.040  0.1125E+00  0.2413E+02
   3.050  0.1091E+00  0.2413E+02
   3.060  0.1058E+00  0.2413E+02
   3.070  0.1025E+00  0.2414E+02
   3.080  0.9941E-01  0.2414E+02
   3.090  0.9637E-01  0.2414E+02
   3.100  0.9339E-01  0.2414E+02
   3.110  0.9047E-01  0.2414E+02
   3.120  0.8759E-01  0.2414E+02
   3.130  0.8475E-01  0.2414E+02
   3.140  0.8194E-01  0.2414E+02
   3.150  0.7916E-01  0.2414E+02
   3.160  0.7639E-01  0.2414E+02
   3.170  0.7364E-01  0.2414E+02
   3.180  0.7091E-01  0.2414E+02
   3.190  0.6820E-01  0.2415E+02
   3.200  0.6552E-01  0.2415E+02
   3.210  0.6288E-01  0.2415E+02
   3.220  0.6029E-01  0.2415E+02
   3.230  0.5776E-01  0.2415E+02
   3.240  0.5530E-01  0.2415E+02
   3.250  0.5294E-01  0.2415E+02
   3.260  0.5068E-01  0.2415E+02
   3.270  0.4856E-01  0.2415E+02
   3.280  0.4659E-01  0.2415E+02
   3.290  0.4478E-01  0.2415E+02
   3.300  0.4317E-01  0.2415E+02
   3.310  0.4177E-01  0.2415E+02
   3.320  0.4060E-01  0.2415E+02
   3.330  0.3969E-01  0.2415E+02
   3.340  0.3904E-01  0.2415E+02
   3.350  0.3867E-01  0.2415E+02
   3.360  0.3861E-01  0.2415E+02
   3.370  0.3885E-01  0.2415E+02
   3.380  0.3942E-01  0.2415E+02
   3.390  0.4032E-01  0.2415E+02
   3.400  0.4155E-01  0.2416E+02
   3.410  0.4312E-01  0.2416E+02
   3.420  0.4502E-01  0.2416E+02
   3.430  0.4725E-01  0.2416E+02
   3.440  0.4981E-01  0.2416E+02
   3.450  0.5268E-01  0.2416E+02
   3.460  0.5585E-01  0.2416E+02
   3.470  0.5932E-01  0.2416E+02
   3.480  0.6305E-01  0.2416E+02
   3.490  0.6704E-01  0.2416E+02
   3.500  0.7126E-01  0.2416E+02
   3.510  0.7570E-01  0.2416E+02
   3.520  0.8032E-01  0.2416E+02
   3.530  0.8512E-01  0.2416E+02
   3.540  0.9005E-01  0.2416E+02
   3.550  0.9511E-01  0.2416E+02
   3.560  0.1003E+00  0.2417E+02
   3.570  0.1055E+00  0.2417E+02
   3.580  0.1108E+00  0.2417E+02
   3.590  0.1161E+00  0.2417E+02
   3.600  0.1215E+00  0.2417E+02
   3.610  0.1268E+00  0.2417E+02
   3.620  0.1321E+00  0.2417E+02
   3.630  0.1375E+00  0.2417E+02
   3.640  0.1427E+00  0.2418E+02
   3.650  0.1480E+00  0.2418E+02
   3.660  0.1532E+00  0.2418E+02
   3.670  0.1584E+00  0.2418E+02
   3.680  0.1635E+00  0.2418E+02
   3.690  0.1686E+00  0.2418E+02
   3.700  0.1737E+00  0.2419E+02
   3.710  0.1788E+00  0.2419E+02
   3.720  0.1838E+00  0.2419E+02
   3.730  0.1889E+00  0.2419E+02
   3.740  0.1939E+00  0.2419E+02
   3.750  0.1990E+00  0.2419E+02
   3.760  0.2041E+00  0.2420E+02
   3.770  0.2093E+00  0.2420E+02
   3.780  0.2146E+00  0.2420E+02
   3.790  0.2199E+00  0.2420E+02
   3.800  0.2253E+00  0.2421E+02
   3.810  0.2308E+00  0.2421E+02
   3.820  0.2365E+00  0.2421E+02
   3.830  0.2422E+00  0.2421E+02
   3.840  0.2481E+00  0.2422E+02
   3.850  0.2540E+00  0.2422E+02
   3.860  0.2601E+00  0.2422E+02
   3.870  0.2663E+00  0.2422E+02
   3.880  0.2727E+00  0.2423E+02
   3.890  0.2791E+00  0.2423E+02
   3.900  0.2856E+00  0.2423E+02
   3.910  0.2922E+00  0.2423E+02
   3.920  0.2988E+00  0.2424E+02
   3.930  0.3055E+00  0.2424E+02
   3.940  0.3122E+00  0.2424E+02
   3.950  0.3189E+00  0.2425E+02
   3.960  0.3257E+00  0.2425E+02
   3.970  0.3323E+00  0.2425E+02
   3.980  0.3390E+00  0.2426E+02
   3.990  0.3456E+00  0.2426E+02
   4.000  0.3521E+00  0.2426E+02
   4.010  0.3585E+00  0.2427E+02
   4.020  0.3648E+00  0.2427E+02
   4.030  0.3710E+00  0.2427E+02
   4.040  0.3771E+00  0.2428E+02
   4.050  0.3831E+00  0.2428E+02
   4.060  0.3890E+00  0.2429E+02
   4.070  0.3947E+00  0.2429E+02
   4.080  0.4004E+00  0.2429E+02
   4.090  0.4061E+00  0.2430E+02
   4.100  0.4116E+00  0.2430E+02
   4.110  0.4172E+00  0.2431E+02
   4.120  0.4227E+00  0.2431E+02
   4.130  0.4283E+00  0.2431E+02
   4.140  0.4340E+00  0.2432E+02
   4.150  0.4397E+00  0.2432E+02
   4.160  0.4456E+00  0.2433E+02
   4.170  0.4517E+00  0.2433E+02
   4.180  0.4579E+00  0.2434E+02
   4.190  0.4644E+00  0.2434E+02
   4.200  0.4711E+00  0.2435E+02
   4.210  0.4782E+00  0.2435E+02
   4.220  0.4855E+00  0.2436E+02
   4.230  0.4932E+00  0.2436E+02
   4.240  0.5012E+00  0.2437E+02
   4.250  0.5096E+00  0.2437E+02
   4.260  0.5183E+00  0.2438E+02
   4.270  0.5274E+00  0.2438E+02
   4.280  0.5369E+00  0.2439E+02
   4.290  0.5467E+00  0.2439E+02
   4.300  0.5568E+00  0.2440E+02
   4.310  0.5672E+00  0.2440E+02
   4.320  0.5778E+00  0.2441E+02
   4.330  0.5887E+00  0.2442E+02
   4.340  0.5999E+00  0.2442E+02
   4.350  0.6111E+00  0.2443E+02
   4.360  0.6225E+00  0.2443E+02
   4.370  0.6340E+00  0.2444E+02
   4.380  0.6456E+00  0.2445E+02
   4.390  0.6572E+00  0.2445E+02
   4.400  0.6688E+00  0.2446E+02
   4.410  0.6805E+00  0.2447E+02
   4.420  0.6920E+00  0.2447E+02
   4.430  0.7036E+00  0.2448E+02
   4.440  0.7152E+00  0.2449E+02
   4.450  0.7267E+00  0.2449E+02
   4.460  0.7382E+00  0.2450E+02
   4.470  0.7498E+00  0.2451E+02
   4.480  0.7615E+00  0.2452E+02
   4.490  0.7734E+00  0.2453E+02
   4.500  0.7854E+00  0.2453E+02
   4.510  0.7977E+00  0.2454E+02
   4.520  0.8104E+00  0.2455E+02
   4.530  0.8235E+00  0.2456E+02
   4.540  0.8371E+00  0.2457E+02
   4.550  0.8513E+00  0.2457E+02
   4.560  0.8662E+00  0.2458E+02
   4.570  0.8819E+00  0.2459E+02
   4.580  0.8986E+00  0.2460E+02
   4.590  0.9162E+00  0.2461E+02
   4.600  0.9348E+00  0.2462E+02
   4.610  0.9547E+00  0.2463E+02
   4.620  0.9757E+00  0.2464E+02
   4.630  0.9979E+00  0.2465E+02
   4.640  0.1022E+01  0.2466E+02
   4.650  0.1046E+01  0.2467E+02
   4.660  0.1073E+01  0.2468E+02
   4.670  0.1100E+01  0.2469E+02
   4.680  0.1129E+01  0.2470E+02
   4.690  0.1160E+01  0.2471E+02
   4.700  0.1191E+01  0.2473E+02
   4.710  0.1224E+01  0.2474E+02
   4.720  0.1258E+01  0.2475E+02
   4.730  0.1293E+01  0.2476E+02
   4.740  0.1329E+01  0.2478E+02
   4.750  0.1365E+01  0.2479E+02
   4.760  0.1403E+01  0.2480E+02
   4.770  0.1441E+01  0.2482E+02
   4.780  0.1479E+01  0.2483E+02
   4.790  0.1518E+01  0.2485E+02
   4.800  0.1557E+01  0.2486E+02
   4.810  0.1596E+01  0.2488E+02
   4.820  0.1635E+01  0.2490E+02
   4.830  0.1673E+01  0.2491E+02
   4.840  0.1712E+01  0.2493E+02
   4.850  0.1749E+01  0.2495E+02
   4.860  0.1786E+01  0.2497E+02
   4.870  0.1823E+01  0.2498E+02
   4.880  0.1858E+01  0.2500E+02
   4.890  0.1892E+01  0.2502E+02
   4.900  0.1926E+01  0.2504E+02
   4.910  0.1958E+01  0.2506E+02
   4.920  0.1989E+01  0.2508E+02
   4.930  0.2018E+01  0.2510E+02
   4.940  0.2046E+01  0.2512E+02
   4.950  0.2073E+01  0.2514E+02
   4.960  0.2098E+01  0.2516E+02
   4.970  0.2121E+01  0.2518E+02
   4.980  0.2143E+01  0.2521E+02
   4.990  0.2163E+01  0.2523E+02
   5.000  0.2181E+01  0.2525E+02
   5.010  0.2197E+01  0.2527E+02
   5.020  0.2212E+01  0.2529E+02
   5.030  0.2224E+01  0.2532E+02
   5.040  0.2235E+01  0.2534E+02
   5.050  0.2243E+01  0.2536E+02
   5.060  0.2250E+01  0.2538E+02
   5.070  0.2254E+01  0.2540E+02
   5.080  0.2257E+01  0.2543E+02
   5.090  0.2257E+01  0.2545E+02
   5.100  0.2255E+01  0.2547E+02
   5.110  0.2251E+01  0.2550E+02
   5.120  0.2245E+01  0.2552E+02
   5.130  0.2236E+01  0.2554E+02
   5.140  0.2226E+01  0.2556E+02
   5.150  0.2213E+01  0.2558E+02
   5.160  0.2198E+01  0.2561E+02
   5.170  0.2182E+01  0.2563E+02
   5.180  0.2163E+01  0.2565E+02
   5.190  0.2142E+01  0.2567E+02
   5.200  0.2120E+01  0.2569E+02
   5.210  0.2096E+01  0.2571E+02
   5.220  0.2070E+01  0.2573E+02
   5.230  0.2043E+01  0.2575E+02
   5.240  0.2014E+01  0.2577E+02
   5.250  0.1984E+01  0.2579E+02
   5.260  0.1953E+01  0.2581E+02
   5.270  0.1922E+01  0.2583E+02
   5.280  0.1889E+01  0.2585E+02
   5.290  0.1856E+01  0.2587E+02
   5.300  0.1823E+01  0.2589E+02
   5.310  0.1789E+01  0.2591E+02
   5.320  0.1756E+01  0.2592E+02
   5.330  0.1723E+01  0.2594E+02
   5.340  0.1690E+01  0.2596E+02
   5.350  0.1658E+01  0.2597E+02
   5.360  0.1626E+01  0.2599E+02
   5.370  0.1596E+01  0.2601E+02
   5.380  0.1566E+01  0.2602E+02
   5.390  0.1538E+01  0.2604E+02
   5.400  0.1511E+01  0.2605E+02
   5.410  0.1486E+01  0.2607E+02
   5.420  0.1461E+01  0.2608E+02
   5.430  0.1439E+01  0.2610E+02
   5.440  0.1418E+01  0.2611E+02
   5.450  0.1399E+01  0.2613E+02
   5.460  0.1381E+01  0.2614E+02
   5.470  0.1366E+01  0.2615E+02
   5.480  0.1351E+01  0.2617E+02
   5.490  0.1339E+01  0.2618E+02
   5.500  0.1328E+01  0.2619E+02
   5.510  0.1318E+01  0.2621E+02
   5.520  0.1310E+01  0.2622E+02
   5.530  0.1303E+01  0.2623E+02
   5.540  0.1298E+01  0.2625E+02
   5.550  0.1293E+01  0.2626E+02
   5.560  0.1290E+01  0.2627E+02
   5.570  0.1287E+01  0.2628E+02
   5.580  0.1285E+01  0.2630E+02
   5.590  0.1283E+01  0.2631E+02
   5.600  0.1282E+01  0.2632E+02
   5.610  0.1281E+01  0.2634E+02
   5.620  0.1280E+01  0.2635E+02
   5.630  0.1279E+01  0.2636E+02
   5.640  0.1278E+01  0.2637E+02
   5.650  0.1277E+01  0.2639E+02
   5.660  0.1276E+01  0.2640E+02
   5.670  0.1274E+01  0.2641E+02
   5.680  0.1272E+01  0.2642E+02
   5.690  0.1269E+01  0.2644E+02
   5.700  0.1266E+01  0.2645E+02
   5.710  0.1262E+01  0.2646E+02
   5.720  0.1257E+01  0.2648E+02
   5.730  0.1252E+01  0.2649E+02
   5.740  0.1246E+01  0.2650E+02
   5.750  0.1240E+01  0.2651E+02
   5.760  0.1233E+01  0.2652E+02
   5.770  0.1226E+01  0.2654E+02
   5.780  0.1218E+01  0.2655E+02
   5.790  0.1210E+01  0.2656E+02
   5.800  0.1202E+01  0.2657E+02
   5.810  0.1193E+01  0.2659E+02
   5.820  0.1185E+01  0.2660E+02
   5.830  0.1176E+01  0.2661E+02
   5.840  0.1168E+01  0.2662E+02
   5.850  0.1160E+01  0.2663E+02
   5.860  0.1152E+01  0.2664E+02
   5.870  0.1144E+01  0.2666E+02
   5.880  0.1137E+01  0.2667E+02
   5.890  0.1131E+01  0.2668E+02
   5.900  0.1125E+01  0.2669E+02
   5.910  0.1120E+01  0.2670E+02
   5.920  0.1115E+01  0.2671E+02
   5.930  0.1112E+01  0.2672E+02
   5.940  0.1109E+01  0.2673E+02
   5.950  0.1107E+01  0.2674E+02
   5.960  0.1106E+01  0.2676E+02
   5.970  0.1105E+01  0.2677E+02
   5.980  0.1105E+01  0.2678E+02
   5.990  0.1107E+01  0.2679E+02
   6.000  0.1108E+01  0.2680E+02
   6.010  0.1111E+01  0.2681E+02
   6.020  0.1114E+01  0.2682E+02
   6.030  0.1118E+01  0.2683E+02
   6.040  0.1122E+01  0.2684E+02
   6.050  0.1126E+01  0.2686E+02
   6.060  0.1131E+01  0.2687E+02
   6.070  0.1136E+01  0.2688E+02
   6.080  0.1141E+01  0.2689E+02
   6.090  0.1147E+01  0.2690E+02
   6.100  0.1152E+01  0.2691E+02
   6.110  0.1157E+01  0.2692E+02
   6.120  0.1162E+01  0.2694E+02
   6.130  0.1167E+01  0.2695E+02
   6.140  0.1172E+01  0.2696E+02
   6.150  0.1176E+01  0.2697E+02
   6.160  0.1180E+01  0.2698E+02
   6.170  0.1183E+01  0.2700E+02
   6.180  0.1186E+01  0.2701E+02
   6.190  0.1189E+01  0.2702E+02
   6.200  0.1191E+01  0.2703E+02
   6.210  0.1192E+01  0.2704E+02
   6.220  0.1194E+01  0.2705E+02
   6.230  0.1194E+01  0.2707E+02
   6.240  0.1195E+01  0.2708E+02
   6.250  0.1194E+01  0.2709E+02
   6.260  0.1194E+01  0.2710E+02
   6.270  0.1194E+01  0.2711E+02
   6.280  0.1193E+01  0.2713E+02
   6.290  0.1192E+01  0.2714E+02
   6.300  0.1191E+01  0.2715E+02
   6.310  0.1190E+01  0.2716E+02
   6.320  0.1189E+01  0.2717E+02
   6.330  0.1189E+01  0.2719E+02
   6.340  0.1189E+01  0.2720E+02
   6.350  0.1189E+01  0.2721E+02
   6.360  0.1189E+01  0.2722E+02
   6.370  0.1190E+01  0.2723E+02
   6.380  0.1192E+01  0.2725E+02
   6.390  0.1194E+01  0.2726E+02
   6.400  0.1197E+01  0.2727E+02
   6.410  0.1200E+01  0.2728E+02
   6.420  0.1204E+01  0.2729E+02
   6.430  0.1208E+01  0.2731E+02
   6.440  0.1213E+01  0.2732E+02
   6.450  0.1219E+01  0.2733E+02
   6.460  0.1226E+01  0.2734E+02
   6.470  0.1233E+01  0.2735E+02
   6.480  0.1240E+01  0.2737E+02
   6.490  0.1248E+01  0.2738E+02
   6.500  0.1256E+01  0.2739E+02
   6.510  0.1264E+01  0.2740E+02
   6.520  0.1273E+01  0.2742E+02
   6.530  0.1282E+01  0.2743E+02
   6.540  0.1291E+01  0.2744E+02
   6.550  0.1300E+01  0.2746E+02
   6.560  0.1308E+01  0.2747E+02
   6.570  0.1317E+01  0.2748E+02
   6.580  0.1325E+01  0.2750E+02
   6.590  0.1333E+01  0.2751E+02
   6.600  0.1340E+01  0.2752E+02
   6.610  0.1347E+01  0.2754E+02
   6.620  0.1354E+01  0.2755E+02
   6.630  0.1359E+01  0.2756E+02
   6.640  0.1364E+01  0.2758E+02
   6.650  0.1369E+01  0.2759E+02
   6.660  0.1372E+01  0.2760E+02
   6.670  0.1375E+01  0.2762E+02
   6.680  0.1377E+01  0.2763E+02
   6.690  0.1379E+01  0.2764E+02
   6.700  0.1379E+01  0.2766E+02
   6.710  0.1379E+01  0.2767E+02
   6.720  0.1378E+01  0.2769E+02
   6.730  0.1377E+01  0.2770E+02
   6.740  0.1375E+01  0.2771E+02
   6.750  0.1372E+01  0.2773E+02
   6.760  0.1369E+01  0.2774E+02
   6.770  0.1366E+01  0.2775E+02
   6.780  0.1362E+01  0.2777E+02
   6.790  0.1358E+01  0.2778E+02
   6.800  0.1354E+01  0.2780E+02
   6.810  0.1350E+01  0.2781E+02
   6.820  0.1345E+01  0.2782E+02
   6.830  0.1341E+01  0.2784E+02
   6.840  0.1337E+01  0.2785E+02
   6.850  0.1333E+01  0.2786E+02
   6.860  0.1330E+01  0.2788E+02
   6.870  0.1327E+01  0.2789E+02
   6.880  0.1324E+01  0.2790E+02
   6.890  0.1322E+01  0.2792E+02
   6.900  0.1320E+01  0.2793E+02
   6.910  0.1319E+01  0.2794E+02
   6.920  0.1319E+01  0.2796E+02
   6.930  0.1320E+01  0.2797E+02
   6.940  0.1321E+01  0.2798E+02
   6.950  0.1323E+01  0.2799E+02
   6.960  0.1325E+01  0.2801E+02
   6.970  0.1329E+01  0.2802E+02
   6.980  0.1333E+01  0.2803E+02
   6.990  0.1337E+01  0.2805E+02
   7.000  0.1343E+01  0.2806E+02
   7.010  0.1349E+01  0.2808E+02
   7.020  0.1355E+01  0.2809E+02
   7.030  0.1362E+01  0.2810E+02
   7.040  0.1369E+01  0.2812E+02
   7.050  0.1376E+01  0.2813E+02
   7.060  0.1384E+01  0.2814E+02
   7.070  0.1392E+01  0.2816E+02
   7.080  0.1399E+01  0.2817E+02
   7.090  0.1407E+01  0.2819E+02
   7.100  0.1414E+01  0.2820E+02
   7.110  0.1421E+01  0.2821E+02
   7.120  0.1428E+01  0.2823E+02
   7.130  0.1434E+01  0.2824E+02
   7.140  0.1439E+01  0.2826E+02
   7.150  0.1444E+01  0.2827E+02
   7.160  0.1449E+01  0.2829E+02
   7.170  0.1452E+01  0.2830E+02
   7.180  0.1455E+01  0.2831E+02
   7.190  0.1457E+01  0.2833E+02
   7.200  0.1458E+01  0.2834E+02
   7.210  0.1459E+01  0.2836E+02
   7.220  0.1458E+01  0.2837E+02
   7.230  0.1457E+01  0.2839E+02
   7.240  0.1456E+01  0.2840E+02
   7.250  0.1453E+01  0.2842E+02
   7.260  0.1450E+01  0.2843E+02
   7.270  0.1446E+01  0.2845E+02
   7.280  0.1442E+01  0.2846E+02
   7.290  0.1438E+01  0.2847E+02
   7.300  0.1433E+01  0.2849E+02
   7.310  0.1428E+01  0.2850E+02
   7.320  0.1423E+01  0.2852E+02
   7.330  0.1418E+01  0.2853E+02
   7.340  0.1413E+01  0.2855E+02
   7.350  0.1408E+01  0.2856E+02
   7.360  0.1404E+01  0.2857E+02
   7.370  0.1399E+01  0.2859E+02
   7.380  0.1396E+01  0.2860E+02
   7.390  0.1392E+01  0.2862E+02
   7.400  0.1390E+01  0.2863E+02
   7.410  0.1388E+01  0.2864E+02
   7.420  0.1386E+01  0.2866E+02
   7.430  0.1386E+01  0.2867E+02
   7.440  0.1386E+01  0.2869E+02
   7.450  0.1387E+01  0.2870E+02
   7.460  0.1388E+01  0.2871E+02
   7.470  0.1391E+01  0.2873E+02
   7.480  0.1394E+01  0.2874E+02
   7.490  0.1397E+01  0.2875E+02
   7.500  0.1402E+01  0.2877E+02
   7.510  0.1407E+01  0.2878E+02
   7.520  0.1412E+01  0.2880E+02
   7.530  0.1418E+01  0.2881E+02
   7.540  0.1425E+01  0.2883E+02
   7.550  0.1432E+01  0.2884E+02
   7.560  0.1439E+01  0.2885E+02
   7.570  0.1446E+01  0.2887E+02
   7.580  0.1454E+01  0.2888E+02
   7.590  0.1462E+01  0.2890E+02
   7.600  0.1469E+01  0.2891E+02
   7.610  0.1477E+01  0.2893E+02
   7.620  0.1484E+01  0.2894E+02
   7.630  0.1491E+01  0.2896E+02
   7.640  0.1498E+01  0.2897E+02
   7.650  0.1504E+01  0.2899E+02
   7.660  0.1510E+01  0.2900E+02
   7.670  0.1516E+01  0.2902E+02
   7.680  0.1521E+01  0.2903E+02
   7.690  0.1525E+01  0.2905E+02
   7.700  0.1529E+01  0.2906E+02
   7.710  0.1532E+01  0.2908E+02
   7.720  0.1534E+01  0.2909E+02
   7.730  0.1536E+01  0.2911E+02
   7.740  0.1537E+01  0.2912E+02
   7.750  0.1537E+01  0.2914E+02
   7.760  0.1536E+01  0.2916E+02
   7.770  0.1535E+01  0.2917E+02
   7.780  0.1533E+01  0.2919E+02
   7.790  0.1531E+01  0.2920E+02
   7.800  0.1528E+01  0.2922E+02
   7.810  0.1524E+01  0.2923E+02
   7.820  0.1520E+01  0.2925E+02
   7.830  0.1516E+01  0.2926E+02
   7.840  0.1512E+01  0.2928E+02
   7.850  0.1507E+01  0.2929E+02
   7.860  0.1502E+01  0.2931E+02
   7.870  0.1497E+01  0.2932E+02
   7.880  0.1492E+01  0.2934E+02
   7.890  0.1487E+01  0.2935E+02
   7.900  0.1483E+01  0.2937E+02
   7.910  0.1479E+01  0.2938E+02
   7.920  0.1475E+01  0.2940E+02
   7.930  0.1472E+01  0.2941E+02
   7.940  0.1469E+01  0.2943E+02
   7.950  0.1468E+01  0.2944E+02
   7.960  0.1466E+01  0.2946E+02
   7.970  0.1466E+01  0.2947E+02
   7.980  0.1467E+01  0.2948E+02
   7.990  0.1468E+01  0.2950E+02
   8.000  0.1470E+01  0.2951E+02
   8.010  0.1473E+01  0.2953E+02
   8.020  0.1477E+01  0.2954E+02
   8.030  0.1482E+01  0.2956E+02
   8.040  0.1488E+01  0.2957E+02
   8.050  0.1494E+01  0.2959E+02
   8.060  0.1501E+01  0.2960E+02
   8.070  0.1509E+01  0.2962E+02
   8.080  0.1517E+01  0.2963E+02
   8.090  0.1526E+01  0.2965E+02
   8.100  0.1535E+01  0.2966E+02
   8.110  0.1545E+01  0.2968E+02
   8.120  0.1554E+01  0.2969E+02
   8.130  0.1564E+01  0.2971E+02
   8.140  0.1574E+01  0.2973E+02
   8.150  0.1583E+01  0.2974E+02
   8.160  0.1592E+01  0.2976E+02
   8.170  0.1601E+01  0.2977E+02
   8.180  0.1610E+01  0.2979E+02
   8.190  0.1618E+01  0.2981E+02
   8.200  0.1626E+01  0.2982E+02
   8.210  0.1633E+01  0.2984E+02
   8.220  0.1639E+01  0.2986E+02
   8.230  0.1644E+01  0.2987E+02
   8.240  0.1649E+01  0.2989E+02
   8.250  0.1653E+01  0.2990E+02
   8.260  0.1656E+01  0.2992E+02
   8.270  0.1659E+01  0.2994E+02
   8.280  0.1661E+01  0.2995E+02
   8.290  0.1661E+01  0.2997E+02
   8.300  0.1662E+01  0.2999E+02
   8.310  0.1661E+01  0.3000E+02
   8.320  0.1660E+01  0.3002E+02
   8.330  0.1658E+01  0.3004E+02
   8.340  0.1656E+01  0.3005E+02
   8.350  0.1653E+01  0.3007E+02
   8.360  0.1650E+01  0.3009E+02
   8.370  0.1647E+01  0.3010E+02
   8.380  0.1643E+01  0.3012E+02
   8.390  0.1639E+01  0.3014E+02
   8.400  0.1635E+01  0.3015E+02
   8.410  0.1631E+01  0.3017E+02
   8.420  0.1627E+01  0.3019E+02
   8.430  0.1623E+01  0.3020E+02
   8.440  0.1619E+01  0.3022E+02
   8.450  0.1616E+01  0.3023E+02
   8.460  0.1612E+01  0.3025E+02
   8.470  0.1609E+01  0.3027E+02
   8.480  0.1607E+01  0.3028E+02
   8.490  0.1605E+01  0.3030E+02
   8.500  0.1603E+01  0.3031E+02
   8.510  0.1602E+01  0.3033E+02
   8.520  0.1601E+01  0.3035E+02
   8.530  0.1601E+01  0.3036E+02
   8.540  0.1601E+01  0.3038E+02
   8.550  0.1602E+01  0.3039E+02
   8.560  0.1603E+01  0.3041E+02
   8.570  0.1605E+01  0.3043E+02
   8.580  0.1608E+01  0.3044E+02
   8.590  0.1611E+01  0.3046E+02
   8.600  0.1615E+01  0.3047E+02
   8.610  0.1619E+01  0.3049E+02
   8.620  0.1623E+01  0.3051E+02
   8.630  0.1628E+01  0.3052E+02
   8.640  0.1633E+01  0.3054E+02
   8.650  0.1638E+01  0.3056E+02
   8.660  0.1644E+01  0.3057E+02
   8.670  0.1650E+01  0.3059E+02
   8.680  0.1656E+01  0.3061E+02
   8.690  0.1662E+01  0.3062E+02
   8.700  0.1668E+01  0.3064E+02
   8.710  0.1673E+01  0.3066E+02
   8.720  0.1679E+01  0.3067E+02
   8.730  0.1684E+01  0.3069E+02
   8.740  0.1689E+01  0.3071E+02
   8.750  0.1694E+01  0.3072E+02
   8.760  0.1698E+01  0.3074E+02
   8.770  0.1701E+01  0.3076E+02
   8.780  0.1704E+01  0.3077E+02
   8.790  0.1706E+01  0.3079E+02
   8.800  0.1707E+01  0.3081E+02
   8.810  0.1708E+01  0.3083E+02
   8.820  0.1707E+01  0.3084E+02
   8.830  0.1706E+01  0.3086E+02
   8.840  0.1704E+01  0.3088E+02
   8.850  0.1701E+01  0.3089E+02
   8.860  0.1697E+01  0.3091E+02
   8.870  0.1692E+01  0.3093E+02
   8.880  0.1687E+01  0.3094E+02
   8.890  0.1680E+01  0.3096E+02
   8.900  0.1673E+01  0.3098E+02
   8.910  0.1665E+01  0.3099E+02
   8.920  0.1656E+01  0.3101E+02
   8.930  0.1647E+01  0.3103E+02
   8.940  0.1637E+01  0.3104E+02
   8.950  0.1627E+01  0.3106E+02
   8.960  0.1616E+01  0.3108E+02
   8.970  0.1605E+01  0.3109E+02
   8.980  0.1594E+01  0.3111E+02
   8.990  0.1582E+01  0.3112E+02
   9.000  0.1570E+01  0.3114E+02
   9.010  0.1559E+01  0.3116E+02
   9.020  0.1547E+01  0.3117E+02
   9.030  0.1536E+01  0.3119E+02
   9.040  0.1524E+01  0.3120E+02
   9.050  0.1513E+01  0.3122E+02
   9.060  0.1502E+01  0.3123E+02
   9.070  0.1491E+01  0.3125E+02
   9.080  0.1480E+01  0.3126E+02
   9.090  0.1470E+01  0.3128E+02
   9.100  0.1460E+01  0.3129E+02
   9.110  0.1450E+01  0.3131E+02
   9.120  0.1441E+01  0.3132E+02
   9.130  0.1431E+01  0.3133E+02
   9.140  0.1422E+01  0.3135E+02
   9.150  0.1413E+01  0.3136E+02
   9.160  0.1404E+01  0.3138E+02
   9.170  0.1395E+01  0.3139E+02
   9.180  0.1386E+01  0.3140E+02
   9.190  0.1376E+01  0.3142E+02
   9.200  0.1367E+01  0.3143E+02
   9.210  0.1358E+01  0.3145E+02
   9.220  0.1348E+01  0.3146E+02
   9.230  0.1338E+01  0.3147E+02
   9.240  0.1327E+01  0.3149E+02
   9.250  0.1316E+01  0.3150E+02
   9.260  0.1305E+01  0.3151E+02
   9.270  0.1293E+01  0.3152E+02
   9.280  0.1280E+01  0.3154E+02
   9.290  0.1267E+01  0.3155E+02
   9.300  0.1254E+01  0.3156E+02
   9.310  0.1240E+01  0.3157E+02
   9.320  0.1225E+01  0.3159E+02
   9.330  0.1210E+01  0.3160E+02
   9.340  0.1194E+01  0.3161E+02
   9.350  0.1177E+01  0.3162E+02
   9.360  0.1160E+01  0.3163E+02
   9.370  0.1143E+01  0.3165E+02
   9.380  0.1125E+01  0.3166E+02
   9.390  0.1106E+01  0.3167E+02
   9.400  0.1088E+01  0.3168E+02
   9.410  0.1068E+01  0.3169E+02
   9.420  0.1049E+01  0.3170E+02
   9.430  0.1029E+01  0.3171E+02
   9.440  0.1010E+01  0.3172E+02
   9.450  0.9899E+00  0.3173E+02
   9.460  0.9701E+00  0.3174E+02
   9.470  0.9503E+00  0.3175E+02
   9.480  0.9306E+00  0.3176E+02
   9.490  0.9111E+00  0.3177E+02
   9.500  0.8919E+00  0.3178E+02
   9.510  0.8729E+00  0.3179E+02
   9.520  0.8543E+00  0.3179E+02
   9.530  0.8362E+00  0.3180E+02
   9.540  0.8185E+00  0.3181E+02
   9.550  0.8013E+00  0.3182E+02
   9.560  0.7847E+00  0.3183E+02
   9.570  0.7687E+00  0.3183E+02
   9.580  0.7533E+00  0.3184E+02
   9.590  0.7386E+00  0.3185E+02
   9.600  0.7245E+00  0.3186E+02
   9.610  0.7111E+00  0.3186E+02
   9.620  0.6984E+00  0.3187E+02
   9.630  0.6864E+00  0.3188E+02
   9.640  0.6751E+00  0.3188E+02
   9.650  0.6644E+00  0.3189E+02
   9.660  0.6544E+00  0.3190E+02
   9.670  0.6450E+00  0.3190E+02
   9.680  0.6362E+00  0.3191E+02
   9.690  0.6279E+00  0.3192E+02
   9.700  0.6202E+00  0.3192E+02
   9.710  0.6130E+00  0.3193E+02
   9.720  0.6061E+00  0.3193E+02
   9.730  0.5997E+00  0.3194E+02
   9.740  0.5936E+00  0.3195E+02
   9.750  0.5878E+00  0.3195E+02
   9.760  0.5822E+00  0.3196E+02
   9.770  0.5768E+00  0.3196E+02
   9.780  0.5716E+00  0.3197E+02
   9.790  0.5664E+00  0.3198E+02
   9.800  0.5613E+00  0.3198E+02
   9.810  0.5561E+00  0.3199E+02
   9.820  0.5509E+00  0.3199E+02
   9.830  0.5456E+00  0.3200E+02
   9.840  0.5402E+00  0.3200E+02
   9.850  0.5347E+00  0.3201E+02
   9.860  0.5289E+00  0.3201E+02
   9.870  0.5229E+00  0.3202E+02
   9.880  0.5166E+00  0.3202E+02
   9.890  0.5101E+00  0.3203E+02
   9.900  0.5032E+00  0.3203E+02
   9.910  0.4961E+00  0.3204E+02
   9.920  0.4886E+00  0.3204E+02
   9.930  0.4808E+00  0.3205E+02
   9.940  0.4726E+00  0.3205E+02
   9.950  0.4641E+00  0.3206E+02
   9.960  0.4552E+00  0.3206E+02
   9.970  0.4460E+00  0.3207E+02
   9.980  0.4365E+00  0.3207E+02
   9.990  0.4265E+00  0.3208E+02
  10.000  0.4163E+00  0.3208E+02
